Wavelength	Irradiance
(nm)	(mW/cm2/nm)

294.396000	0.000000
294.577000	0.000000
294.757000	0.000000
294.938000	-0.000000
295.118000	0.000000
295.299000	0.000000
295.479000	-0.000000
295.660000	-0.000000
295.840000	-0.000000
296.021000	-0.000000
296.202000	-0.000000
296.382000	-0.000000
296.563000	-0.000000
296.743000	-0.000000
296.924000	0.000000
297.104000	-0.000000
297.285000	-0.000000
297.465000	-0.000000
297.646000	-0.000000
297.826000	0.000000
298.007000	0.000000
298.187000	0.000000
298.368000	-0.000000
298.548000	0.000000
298.729000	0.000000
298.909000	-0.000000
299.090000	-0.000000
299.270000	-0.000000
299.451000	-0.000000
299.631000	-0.000000
299.812000	-0.000000
299.992000	0.000000
300.173000	0.000000
300.353000	-0.000000
300.534000	0.000000
300.714000	0.000000
300.895000	0.000000
301.075000	-0.000000
301.256000	0.000000
301.436000	-0.000000
301.617000	-0.000000
301.797000	-0.000000
301.978000	0.000000
302.159000	0.000000
302.339000	0.000000
302.520000	0.000000
302.700000	-0.000000
302.881000	0.000000
303.061000	0.000000
303.242000	0.000000
303.422000	0.000000
303.603000	-0.000000
303.783000	-0.000000
303.964000	0.000000
304.144000	0.000000
304.325000	-0.000000
304.505000	0.000000
304.686000	0.000000
304.866000	0.000000
305.047000	0.000000
305.227000	-0.000000
305.408000	-0.000000
305.588000	-0.000000
305.769000	-0.000000
305.949000	-0.000000
306.130000	-0.000000
306.310000	-0.000000
306.491000	-0.000000
306.671000	0.000000
306.852000	-0.000000
307.032000	-0.000000
307.213000	0.000000
307.393000	-0.000000
307.574000	0.000000
307.755000	0.000000
307.935000	0.000000
308.116000	0.000000
308.296000	-0.000000
308.477000	0.000000
308.657000	0.000000
308.838000	0.000000
309.018000	0.000000
309.199000	-0.000000
309.379000	-0.000000
309.560000	0.000000
309.740000	-0.000000
309.921000	0.000000
310.101000	0.000000
310.282000	-0.000000
310.462000	-0.000000
310.643000	-0.000000
310.823000	-0.000000
311.004000	-0.000000
311.184000	-0.000000
311.365000	0.000000
311.545000	0.000000
311.726000	0.000000
311.906000	-0.000000
312.087000	0.000000
312.267000	-0.000000
312.448000	-0.000000
312.628000	-0.000000
312.809000	-0.000000
312.989000	-0.000000
313.170000	-0.000000
313.344000	-0.000000
313.518000	-0.000000
313.691000	-0.000000
313.865000	-0.000000
314.039000	-0.000000
314.213000	-0.000000
314.387000	-0.000000
314.560000	-0.000000
314.734000	-0.000000
314.908000	-0.000000
315.082000	-0.000000
315.255000	0.000000
315.429000	0.000000
315.603000	0.000000
315.777000	-0.000000
315.951000	0.000000
316.124000	-0.000000
316.298000	-0.000000
316.472000	-0.000000
316.646000	-0.000000
316.820000	-0.000000
316.993000	0.000000
317.167000	-0.000000
317.341000	-0.000000
317.515000	-0.000000
317.688000	-0.000000
317.862000	-0.000000
318.036000	-0.000000
318.210000	-0.000000
318.384000	-0.000000
318.557000	-0.000000
318.731000	-0.000000
318.905000	0.000000
319.079000	0.000000
319.253000	-0.000000
319.426000	0.000000
319.600000	0.000000
319.774000	-0.000000
319.948000	-0.000000
320.122000	0.000000
320.295000	0.000000
320.469000	-0.000000
320.643000	-0.000000
320.817000	-0.000000
320.990000	-0.000000
321.164000	-0.000000
321.338000	-0.000000
321.512000	-0.000000
321.686000	-0.000000
321.859000	-0.000000
322.033000	0.000000
322.207000	0.000000
322.381000	-0.000000
322.555000	0.000000
322.728000	0.000000
322.902000	-0.000000
323.076000	-0.000000
323.250000	-0.000000
323.423000	-0.000000
323.597000	-0.000000
323.771000	-0.000000
323.945000	-0.000000
324.119000	-0.000000
324.292000	0.000000
324.466000	-0.000000
324.640000	0.000000
324.814000	0.000000
324.988000	-0.000000
325.161000	-0.000000
325.335000	-0.000000
325.509000	-0.000000
325.683000	-0.000000
325.856000	-0.000000
326.030000	-0.000000
326.204000	-0.000000
326.378000	0.000000
326.552000	-0.000000
326.725000	-0.000000
326.899000	-0.000000
327.073000	-0.000000
327.247000	-0.000000
327.421000	0.000000
327.594000	0.000000
327.768000	-0.000000
327.942000	-0.000000
328.116000	0.000000
328.289000	0.000000
328.463000	0.000000
328.637000	0.000000
328.811000	-0.000000
328.985000	-0.000000
329.158000	-0.000000
329.332000	-0.000000
329.506000	0.000000
329.680000	-0.000000
329.854000	0.000000
330.027000	0.000000
330.201000	0.000000
330.375000	0.000000
330.549000	0.000000
330.723000	-0.000000
330.896000	-0.000000
331.070000	-0.000000
331.244000	-0.000000
331.418000	-0.000000
331.591000	0.000000
331.765000	-0.000000
331.939000	-0.000000
332.113000	-0.000000
332.287000	-0.000000
332.460000	0.000000
332.634000	0.000000
332.808000	-0.000000
332.982000	-0.000000
333.156000	-0.000000
333.329000	0.000000
333.503000	-0.000000
333.677000	-0.000000
333.851000	-0.000000
334.024000	-0.000000
334.198000	-0.000000
334.372000	-0.000000
334.546000	-0.000000
334.720000	-0.000000
334.893000	-0.000000
335.067000	-0.000000
335.241000	0.000000
335.415000	-0.000000
335.589000	-0.000000
335.762000	-0.000000
335.936000	-0.000000
336.110000	-0.000000
336.284000	-0.000000
336.458000	-0.000000
336.631000	-0.000000
336.805000	-0.000000
336.979000	-0.000000
337.153000	-0.000000
337.326000	-0.000000
337.500000	0.000000
337.674000	0.000000
337.848000	-0.000000
338.022000	0.000000
338.195000	-0.000000
338.369000	-0.000000
338.543000	-0.000000
338.717000	-0.000000
338.891000	0.000000
339.064000	0.000000
339.238000	-0.000000
339.412000	-0.000000
339.586000	0.000000
339.759000	-0.000000
339.933000	-0.000000
340.107000	0.000000
340.281000	-0.000000
340.455000	-0.000000
340.628000	-0.000000
340.802000	-0.000000
340.976000	0.000000
341.150000	-0.000000
341.324000	-0.000000
341.497000	-0.000000
341.671000	-0.000000
341.845000	-0.000000
342.019000	-0.000000
342.192000	-0.000000
342.366000	-0.000000
342.540000	-0.000000
342.714000	-0.000000
342.888000	-0.000000
343.061000	0.000000
343.235000	-0.000000
343.409000	-0.000000
343.583000	-0.000000
343.757000	0.000000
343.930000	-0.000000
344.104000	-0.000000
344.278000	0.000000
344.452000	0.000000
344.626000	-0.000000
344.799000	-0.000000
344.973000	-0.000000
345.147000	-0.000000
345.321000	-0.000000
345.494000	-0.000000
345.668000	0.000000
345.842000	0.000000
346.016000	-0.000000
346.190000	0.000000
346.363000	0.000000
346.537000	-0.000000
346.711000	-0.000000
346.885000	-0.000000
347.059000	-0.000000
347.232000	0.000000
347.406000	0.000000
347.580000	-0.000000
347.754000	-0.000000
347.927000	0.000000
348.101000	0.000000
348.275000	-0.000000
348.449000	-0.000000
348.623000	-0.000000
348.796000	0.000000
348.970000	0.000000
349.144000	0.000000
349.318000	-0.000000
349.492000	-0.000000
349.665000	-0.000000
349.839000	-0.000000
350.013000	-0.000000
350.187000	-0.000000
350.361000	-0.000000
350.534000	0.000000
350.708000	0.000000
350.882000	0.000000
351.056000	0.000000
351.229000	0.000000
351.403000	-0.000000
351.577000	-0.000000
351.751000	-0.000000
351.925000	-0.000000
352.098000	-0.000000
352.272000	0.000000
352.446000	-0.000000
352.620000	-0.000000
352.794000	-0.000000
352.967000	-0.000000
353.141000	0.000000
353.315000	0.000000
353.489000	-0.000000
353.662000	-0.000000
353.836000	-0.000000
354.010000	-0.000000
354.184000	0.000000
354.358000	-0.000000
354.531000	-0.000000
354.705000	-0.000000
354.879000	-0.000000
355.053000	-0.000000
355.227000	0.000000
355.400000	-0.000000
355.574000	0.000000
355.748000	0.000000
355.922000	-0.000000
356.095000	-0.000000
356.269000	0.000000
356.443000	-0.000000
356.617000	-0.000000
356.791000	-0.000000
356.964000	-0.000000
357.138000	-0.000000
357.312000	-0.000000
357.486000	-0.000000
357.660000	0.000000
357.833000	0.000000
358.007000	-0.000000
358.181000	-0.000000
358.355000	-0.000000
358.529000	-0.000000
358.702000	-0.000000
358.876000	-0.000000
359.050000	-0.000000
359.224000	-0.000000
359.397000	0.000000
359.571000	-0.000000
359.745000	-0.000000
359.919000	0.000000
360.093000	0.053465
360.266000	0.097623
360.440000	0.176109
360.614000	0.162781
360.788000	0.040434
360.962000	-0.168674
361.135000	-0.062285
361.309000	-0.116016
361.483000	-0.291204
361.657000	-0.225525
361.830000	-0.126858
362.004000	0.055911
362.178000	-0.295861
362.352000	-0.235545
362.526000	-0.056327
362.699000	-0.025676
362.873000	-0.351155
363.047000	-0.310417
363.221000	-0.301337
363.395000	-0.114101
363.568000	-0.119500
363.742000	-0.173100
363.916000	-0.159899
364.090000	-0.295318
364.263000	-0.280371
364.437000	-0.339188
364.611000	-0.017271
364.785000	0.002799
364.959000	-0.124055
365.132000	-0.167375
365.306000	-0.194449
365.480000	-0.087493
365.656000	-0.157404
365.831000	-0.124426
366.007000	-0.166164
366.183000	-0.126837
366.358000	-0.223663
366.534000	-0.131715
366.710000	-0.303930
366.886000	-0.247922
367.061000	-0.051739
367.237000	0.064785
367.413000	-0.113492
367.588000	-0.316764
367.764000	-0.298460
367.940000	-0.309880
368.115000	-0.248542
368.291000	-0.225303
368.467000	-0.043873
368.643000	0.217683
368.818000	-0.171819
368.994000	-0.339138
369.170000	-0.213354
369.345000	-0.225031
369.521000	-0.290006
369.697000	-0.130431
369.872000	-0.217512
370.048000	-0.280618
370.224000	-0.187525
370.399000	-0.475021
370.575000	-0.356688
370.751000	-0.417670
370.927000	-0.422094
371.102000	-0.347748
371.278000	-0.310565
371.454000	-0.217025
371.629000	0.105902
371.805000	0.021917
371.981000	0.107055
372.156000	0.255840
372.332000	0.061476
372.508000	0.011102
372.683000	0.056797
372.859000	-0.015995
373.035000	-0.084668
373.211000	0.352201
373.386000	0.145650
373.562000	-0.319465
373.738000	-0.392344
373.913000	-0.548943
374.089000	-0.427756
374.265000	0.011223
374.440000	0.019608
374.616000	0.063657
374.792000	-0.106967
374.968000	0.282168
375.143000	0.038107
375.319000	-0.251683
375.495000	-0.291487
375.670000	-0.180164
375.846000	-0.073061
376.022000	-0.227512
376.197000	-0.143984
376.373000	-0.377124
376.549000	-0.306479
376.724000	-0.351240
376.900000	-0.297923
377.076000	-0.111931
377.252000	0.125961
377.427000	0.226897
377.603000	-0.141120
377.779000	-0.122492
377.954000	-0.265175
378.130000	-0.133453
378.306000	-0.105627
378.481000	-0.150013
378.657000	-0.214824
378.833000	-0.272072
379.009000	-0.111262
379.184000	0.010838
379.360000	-0.002358
379.536000	0.013474
379.711000	-0.080308
379.887000	-0.235264
380.063000	-0.272042
380.238000	-0.295050
380.414000	-0.044307
380.590000	-0.243270
380.765000	-0.231961
380.941000	-0.046709
381.117000	-0.069747
381.293000	-0.157533
381.468000	-0.293906
381.644000	-0.243773
381.820000	-0.134854
381.995000	0.010758
382.171000	0.248067
382.347000	0.221437
382.522000	-0.183015
382.698000	0.120093
382.874000	0.114711
383.050000	-0.211830
383.225000	0.102215
383.401000	0.231067
383.577000	-0.086903
383.752000	-0.194026
383.928000	-0.147066
384.104000	-0.044775
384.279000	-0.153524
384.455000	-0.043545
384.631000	-0.061671
384.806000	-0.295185
384.982000	-0.110828
385.158000	-0.221225
385.334000	-0.104944
385.509000	-0.180101
385.685000	-0.373985
385.861000	-0.138459
386.036000	-0.257873
386.212000	-0.476493
386.388000	-0.271056
386.563000	-0.227112
386.739000	-0.270821
386.915000	-0.535358
387.090000	-0.256969
387.266000	0.020973
387.442000	0.108904
387.618000	0.007956
387.793000	-0.255994
387.969000	-0.442134
388.145000	-0.386693
388.320000	-0.314508
388.496000	-0.221042
388.672000	-0.449228
388.847000	-0.086581
389.023000	-0.033159
389.199000	-0.325308
389.375000	-0.114361
389.550000	-0.227241
389.726000	-0.139123
389.902000	-0.390228
390.077000	-0.185163
390.253000	-0.114445
390.429000	-0.186904
390.604000	-0.096497
390.780000	-0.030148
390.956000	-0.125442
391.131000	-0.195456
391.307000	0.065532
391.483000	-0.132772
391.659000	-0.284292
391.834000	-0.062431
392.010000	-0.197556
392.186000	-0.257919
392.361000	-0.240892
392.537000	-0.323158
392.713000	0.205214
392.888000	0.356382
393.064000	0.005212
393.240000	-0.163152
393.416000	-0.272872
393.591000	-0.388845
393.767000	-0.429858
393.943000	-0.291895
394.118000	0.044188
394.294000	0.239336
394.470000	0.041612
394.645000	0.048757
394.821000	0.263741
394.997000	-0.048249
395.172000	-0.129996
395.348000	-0.231746
395.524000	-0.454642
395.700000	-0.267371
395.875000	-0.059613
396.051000	-0.143219
396.227000	-0.165966
396.402000	-0.208014
396.578000	-0.103620
396.754000	-0.254402
396.929000	-0.217392
397.105000	0.040834
397.281000	-0.049893
397.457000	-0.199705
397.632000	-0.126945
397.808000	-0.395585
397.984000	-0.529855
398.159000	-0.445061
398.335000	-0.303893
398.511000	0.168624
398.686000	0.002606
398.862000	-0.230374
399.038000	-0.363564
399.213000	-0.125913
399.389000	-0.446855
399.565000	-0.192178
399.741000	0.014298
399.916000	0.002603
400.092000	0.254570
400.268000	-0.090854
400.443000	-0.205381
400.619000	0.146494
400.795000	0.057061
400.970000	-0.219384
401.146000	-0.307026
401.322000	0.068715
401.497000	0.507553
401.673000	0.199466
401.849000	-0.136871
402.025000	0.030836
402.200000	-0.121835
402.376000	-0.203908
402.552000	0.200510
402.727000	-0.011491
402.903000	-0.308674
403.079000	-0.159007
403.254000	0.115081
403.430000	0.098015
403.606000	-0.016091
403.782000	-0.034703
403.957000	-0.231000
404.133000	-0.409569
404.309000	-0.308780
404.484000	-0.058083
404.660000	-0.072280
404.841000	-0.184674
405.023000	0.067739
405.204000	0.000233
405.385000	-0.316392
405.566000	-0.300960
405.748000	-0.138956
405.929000	0.076108
406.110000	0.018983
406.292000	-0.092574
406.473000	-0.060241
406.654000	-0.290469
406.835000	-0.102566
407.017000	-0.081231
407.198000	-0.036595
407.379000	-0.018132
407.560000	-0.066540
407.742000	-0.143625
407.923000	-0.095426
408.104000	-0.273772
408.286000	-0.148080
408.467000	-0.052936
408.648000	-0.196864
408.829000	-0.247005
409.011000	-0.089995
409.192000	-0.359759
409.373000	-0.203875
409.555000	-0.067042
409.736000	-0.043550
409.917000	-0.143163
410.098000	-0.091670
410.280000	-0.002053
410.461000	0.036657
410.642000	0.059535
410.823000	0.260169
411.005000	0.157762
411.186000	-0.095726
411.367000	-0.148400
411.549000	-0.146008
411.730000	0.082463
411.911000	0.212309
412.092000	0.063889
412.274000	0.020534
412.455000	0.054495
412.636000	0.054544
412.818000	-0.123759
412.999000	-0.210243
413.180000	-0.078613
413.361000	-0.115081
413.543000	-0.139203
413.724000	-0.188195
413.905000	-0.224091
414.087000	-0.226808
414.268000	-0.235438
414.449000	-0.193558
414.630000	-0.274807
414.812000	-0.392518
414.993000	-0.015265
415.174000	0.159585
415.355000	-0.019821
415.537000	-0.272493
415.718000	0.035733
415.899000	-0.063952
416.081000	-0.182692
416.262000	0.066197
416.443000	-0.041461
416.624000	0.015539
416.806000	0.116441
416.987000	0.235980
417.168000	0.133819
417.350000	-0.017298
417.531000	-0.067254
417.712000	-0.071601
417.893000	0.128573
418.075000	0.262469
418.256000	0.021954
418.437000	0.107156
418.618000	0.243767
418.800000	0.282465
418.981000	0.082309
419.162000	0.163345
419.344000	0.369667
419.525000	0.228299
419.706000	0.145917
419.887000	0.325755
420.069000	0.429475
420.250000	0.290647
420.431000	0.263996
420.613000	0.276108
420.794000	0.050277
420.975000	0.375009
421.156000	0.166393
421.338000	0.086471
421.519000	0.177003
421.700000	0.125632
421.882000	0.125610
422.063000	0.356064
422.244000	0.834914
422.425000	0.583936
422.607000	0.198278
422.788000	0.193026
422.969000	0.094877
423.150000	0.099295
423.332000	0.025987
423.513000	0.293234
423.694000	0.372746
423.876000	0.384572
424.057000	0.434303
424.238000	0.494463
424.419000	0.508946
424.601000	0.380630
424.782000	0.425849
424.963000	0.551529
425.145000	0.466658
425.326000	0.542061
425.507000	0.605673
425.688000	0.539698
425.870000	0.336028
426.051000	0.217537
426.232000	0.307884
426.413000	0.352978
426.595000	0.344672
426.776000	0.340209
426.957000	0.449734
427.139000	0.542520
427.320000	0.575180
427.501000	0.740168
427.682000	0.671770
427.864000	0.669232
428.045000	0.911434
428.226000	0.853875
428.408000	0.481977
428.589000	0.635511
428.770000	0.692279
428.951000	0.639450
429.133000	0.487331
429.314000	0.643077
429.495000	0.666571
429.677000	0.733232
429.858000	0.749045
430.039000	0.810074
430.220000	0.885415
430.402000	0.989737
430.583000	0.770928
430.764000	0.755029
430.945000	0.900044
431.127000	1.010615
431.308000	0.876817
431.489000	1.083941
431.671000	1.171759
431.852000	1.021644
432.033000	0.979281
432.214000	1.110898
432.396000	1.169273
432.577000	0.987526
432.758000	0.837195
432.940000	0.923305
433.121000	1.038916
433.302000	1.160130
433.483000	1.345496
433.665000	1.428500
433.846000	1.377592
434.027000	1.297698
434.208000	1.224824
434.390000	1.166310
434.571000	1.618727
434.752000	2.124223
434.934000	1.890564
435.115000	1.870324
435.296000	1.998655
435.477000	1.816547
435.659000	1.549188
435.840000	1.704152
436.026000	1.653968
436.211000	1.539429
436.397000	1.323293
436.582000	1.433613
436.768000	1.703781
436.953000	1.701470
437.139000	1.701831
437.325000	2.030353
437.510000	2.019944
437.696000	2.180103
437.881000	2.180692
438.067000	1.835588
438.252000	1.955268
438.438000	1.961901
438.624000	2.008080
438.809000	2.113640
438.995000	2.238747
439.180000	2.166263
439.366000	2.167976
439.551000	2.270151
439.737000	2.378324
439.923000	2.488409
440.108000	2.465351
440.294000	2.601794
440.479000	2.808761
440.665000	2.854952
440.850000	2.792496
441.036000	2.868928
441.222000	2.859573
441.407000	2.805016
441.593000	3.033424
441.778000	3.165747
441.964000	3.338612
442.149000	3.151681
442.335000	3.174361
442.521000	3.317078
442.706000	3.550818
442.892000	3.554635
443.077000	3.555031
443.263000	3.725568
443.448000	3.763954
443.634000	3.821809
443.820000	4.245668
444.005000	4.218340
444.191000	3.992283
444.376000	4.128064
444.562000	4.499954
444.747000	4.610078
444.933000	4.698312
445.119000	4.694544
445.304000	4.676469
445.490000	4.936471
445.675000	5.033268
445.861000	4.984810
446.046000	5.127308
446.232000	5.303307
446.418000	5.495190
446.603000	5.578535
446.789000	5.678745
446.974000	5.837961
447.160000	5.714520
447.345000	5.836464
447.531000	5.977601
447.717000	6.306601
447.902000	6.478792
448.088000	6.561692
448.273000	6.533516
448.459000	6.581541
448.644000	6.583238
448.830000	6.637479
449.016000	6.765214
449.201000	6.990372
449.387000	7.157984
449.572000	7.293539
449.758000	7.286927
449.943000	7.223405
450.129000	7.201969
450.315000	7.267438
450.500000	7.341802
450.686000	7.467659
450.871000	7.502491
451.057000	7.736350
451.243000	7.755005
451.428000	7.857514
451.614000	7.860954
451.799000	7.806698
451.985000	8.051022
452.170000	8.083689
452.356000	7.863537
452.542000	7.916975
452.727000	8.071267
452.913000	7.960039
453.098000	8.083770
453.284000	8.278396
453.469000	8.115902
453.655000	8.218938
453.841000	7.995945
454.026000	7.751789
454.212000	7.885545
454.397000	7.838067
454.583000	7.682909
454.768000	7.537193
454.954000	7.660190
455.140000	7.578484
455.325000	7.355555
455.511000	7.273471
455.696000	7.353915
455.882000	7.400744
456.067000	7.523705
456.253000	7.256392
456.439000	6.996591
456.624000	6.881603
456.810000	6.803330
456.995000	6.798108
457.181000	6.681382
457.366000	6.827858
457.552000	6.757126
457.738000	6.735365
457.923000	6.674214
458.109000	6.871298
458.294000	6.680624
458.480000	6.519145
458.665000	6.360824
458.851000	6.184260
459.037000	5.883487
