Wavelength	Irradiance
(nm)	(mW/cm2/nm)

294.396000	0.000000
294.577000	0.000000
294.757000	0.000000
294.938000	0.000000
295.118000	0.000000
295.299000	0.000000
295.479000	-0.000000
295.660000	-0.000000
295.840000	-0.000000
296.021000	0.000000
296.202000	-0.000000
296.382000	-0.000000
296.563000	-0.000000
296.743000	-0.000000
296.924000	0.000000
297.104000	-0.000000
297.285000	-0.000000
297.465000	-0.000000
297.646000	-0.000000
297.826000	0.000000
298.007000	0.000000
298.187000	0.000000
298.368000	-0.000000
298.548000	0.000000
298.729000	0.000000
298.909000	-0.000000
299.090000	-0.000000
299.270000	-0.000000
299.451000	-0.000000
299.631000	-0.000000
299.812000	-0.000000
299.992000	0.000000
300.173000	0.000000
300.353000	-0.000000
300.534000	0.000000
300.714000	0.000000
300.895000	0.000000
301.075000	0.000000
301.256000	0.000000
301.436000	-0.000000
301.617000	-0.000000
301.797000	-0.000000
301.978000	0.000000
302.159000	0.000000
302.339000	0.000000
302.520000	-0.000000
302.700000	-0.000000
302.881000	0.000000
303.061000	0.000000
303.242000	0.000000
303.422000	0.000000
303.603000	0.000000
303.783000	-0.000000
303.964000	0.000000
304.144000	-0.000000
304.325000	-0.000000
304.505000	0.000000
304.686000	0.000000
304.866000	0.000000
305.047000	0.000000
305.227000	-0.000000
305.408000	-0.000000
305.588000	-0.000000
305.769000	-0.000000
305.949000	-0.000000
306.130000	-0.000000
306.310000	-0.000000
306.491000	-0.000000
306.671000	0.000000
306.852000	-0.000000
307.032000	-0.000000
307.213000	-0.000000
307.393000	-0.000000
307.574000	0.000000
307.755000	0.000000
307.935000	0.000000
308.116000	-0.000000
308.296000	-0.000000
308.477000	0.000000
308.657000	0.000000
308.838000	0.000000
309.018000	0.000000
309.199000	-0.000000
309.379000	-0.000000
309.560000	0.000000
309.740000	0.000000
309.921000	0.000000
310.101000	0.000000
310.282000	-0.000000
310.462000	-0.000000
310.643000	-0.000000
310.823000	-0.000000
311.004000	-0.000000
311.184000	-0.000000
311.365000	0.000000
311.545000	0.000000
311.726000	0.000000
311.906000	0.000000
312.087000	0.000000
312.267000	-0.000000
312.448000	-0.000000
312.628000	-0.000000
312.809000	-0.000000
312.989000	-0.000000
313.170000	-0.000000
313.344000	0.000000
313.518000	-0.000000
313.691000	-0.000000
313.865000	-0.000000
314.039000	-0.000000
314.213000	-0.000000
314.387000	-0.000000
314.560000	-0.000000
314.734000	-0.000000
314.908000	-0.000000
315.082000	-0.000000
315.255000	0.000000
315.429000	0.000000
315.603000	0.000000
315.777000	-0.000000
315.951000	0.000000
316.124000	-0.000000
316.298000	-0.000000
316.472000	-0.000000
316.646000	-0.000000
316.820000	-0.000000
316.993000	0.000000
317.167000	-0.000000
317.341000	-0.000000
317.515000	-0.000000
317.688000	-0.000000
317.862000	-0.000000
318.036000	-0.000000
318.210000	-0.000000
318.384000	-0.000000
318.557000	-0.000000
318.731000	-0.000000
318.905000	0.000000
319.079000	0.000000
319.253000	0.000000
319.426000	0.000000
319.600000	0.000000
319.774000	-0.000000
319.948000	-0.000000
320.122000	0.000000
320.295000	0.000000
320.469000	-0.000000
320.643000	-0.000000
320.817000	-0.000000
320.990000	-0.000000
321.164000	-0.000000
321.338000	-0.000000
321.512000	-0.000000
321.686000	-0.000000
321.859000	-0.000000
322.033000	0.000000
322.207000	0.000000
322.381000	-0.000000
322.555000	0.000000
322.728000	0.000000
322.902000	-0.000000
323.076000	-0.000000
323.250000	-0.000000
323.423000	-0.000000
323.597000	-0.000000
323.771000	-0.000000
323.945000	-0.000000
324.119000	-0.000000
324.292000	0.000000
324.466000	0.000000
324.640000	0.000000
324.814000	0.000000
324.988000	-0.000000
325.161000	0.000000
325.335000	-0.000000
325.509000	-0.000000
325.683000	0.000000
325.856000	-0.000000
326.030000	-0.000000
326.204000	-0.000000
326.378000	0.000000
326.552000	-0.000000
326.725000	-0.000000
326.899000	-0.000000
327.073000	-0.000000
327.247000	-0.000000
327.421000	0.000000
327.594000	0.000000
327.768000	-0.000000
327.942000	0.000000
328.116000	0.000000
328.289000	0.000000
328.463000	-0.000000
328.637000	0.000000
328.811000	-0.000000
328.985000	-0.000000
329.158000	-0.000000
329.332000	-0.000000
329.506000	0.000000
329.680000	-0.000000
329.854000	-0.000000
330.027000	-0.000000
330.201000	0.000000
330.375000	0.000000
330.549000	0.000000
330.723000	0.000000
330.896000	-0.000000
331.070000	-0.000000
331.244000	-0.000000
331.418000	-0.000000
331.591000	0.000000
331.765000	-0.000000
331.939000	0.000000
332.113000	0.000000
332.287000	0.000000
332.460000	0.000000
332.634000	0.000000
332.808000	-0.000000
332.982000	-0.000000
333.156000	-0.000000
333.329000	-0.000000
333.503000	-0.000000
333.677000	-0.000000
333.851000	-0.000000
334.024000	0.000000
334.198000	-0.000000
334.372000	-0.000000
334.546000	-0.000000
334.720000	-0.000000
334.893000	-0.000000
335.067000	-0.000000
335.241000	0.000000
335.415000	0.000000
335.589000	-0.000000
335.762000	-0.000000
335.936000	-0.000000
336.110000	-0.000000
336.284000	-0.000000
336.458000	0.000000
336.631000	-0.000000
336.805000	-0.000000
336.979000	-0.000000
337.153000	-0.000000
337.326000	-0.000000
337.500000	-0.000000
337.674000	-0.000000
337.848000	-0.000000
338.022000	0.000000
338.195000	-0.000000
338.369000	-0.000000
338.543000	-0.000000
338.717000	-0.000000
338.891000	0.000000
339.064000	0.000000
339.238000	-0.000000
339.412000	-0.000000
339.586000	-0.000000
339.759000	-0.000000
339.933000	-0.000000
340.107000	0.000000
340.281000	-0.000000
340.455000	-0.000000
340.628000	-0.000000
340.802000	-0.000000
340.976000	0.000000
341.150000	-0.000000
341.324000	-0.000000
341.497000	-0.000000
341.671000	-0.000000
341.845000	-0.000000
342.019000	-0.000000
342.192000	0.000000
342.366000	-0.000000
342.540000	-0.000000
342.714000	-0.000000
342.888000	-0.000000
343.061000	0.000000
343.235000	-0.000000
343.409000	-0.000000
343.583000	-0.000000
343.757000	-0.000000
343.930000	-0.000000
344.104000	-0.000000
344.278000	0.000000
344.452000	0.000000
344.626000	-0.000000
344.799000	-0.000000
344.973000	-0.000000
345.147000	-0.000000
345.321000	-0.000000
345.494000	-0.000000
345.668000	0.000000
345.842000	0.000000
346.016000	-0.000000
346.190000	0.000000
346.363000	0.000000
346.537000	-0.000000
346.711000	-0.000000
346.885000	-0.000000
347.059000	-0.000000
347.232000	0.000000
347.406000	0.000000
347.580000	-0.000000
347.754000	-0.000000
347.927000	-0.000000
348.101000	0.000000
348.275000	-0.000000
348.449000	-0.000000
348.623000	-0.000000
348.796000	0.000000
348.970000	0.000000
349.144000	0.000000
349.318000	-0.000000
349.492000	0.000000
349.665000	-0.000000
349.839000	-0.000000
350.013000	-0.000000
350.187000	-0.000000
350.361000	-0.000000
350.534000	0.000000
350.708000	0.000000
350.882000	0.000000
351.056000	0.000000
351.229000	-0.000000
351.403000	-0.000000
351.577000	-0.000000
351.751000	-0.000000
351.925000	-0.000000
352.098000	-0.000000
352.272000	-0.000000
352.446000	-0.000000
352.620000	-0.000000
352.794000	-0.000000
352.967000	-0.000000
353.141000	0.000000
353.315000	0.000000
353.489000	-0.000000
353.662000	-0.000000
353.836000	-0.000000
354.010000	-0.000000
354.184000	0.000000
354.358000	-0.000000
354.531000	-0.000000
354.705000	-0.000000
354.879000	-0.000000
355.053000	-0.000000
355.227000	0.000000
355.400000	-0.000000
355.574000	0.000000
355.748000	0.000000
355.922000	-0.000000
356.095000	-0.000000
356.269000	-0.000000
356.443000	-0.000000
356.617000	-0.000000
356.791000	-0.000000
356.964000	-0.000000
357.138000	-0.000000
357.312000	-0.000000
357.486000	-0.000000
357.660000	0.000000
357.833000	0.000000
358.007000	-0.000000
358.181000	-0.000000
358.355000	-0.000000
358.529000	-0.000000
358.702000	-0.000000
358.876000	-0.000000
359.050000	-0.000000
359.224000	-0.000000
359.397000	0.000000
359.571000	-0.000000
359.745000	-0.000000
359.919000	-0.000000
360.093000	-0.049250
360.266000	0.116455
360.440000	0.190308
360.614000	0.155628
360.788000	0.097847
360.962000	-0.102671
361.135000	0.079922
361.309000	-0.112216
361.483000	-0.328316
361.657000	-0.239747
361.830000	-0.209237
362.004000	0.008816
362.178000	-0.363113
362.352000	-0.337946
362.526000	-0.090029
362.699000	0.008951
362.873000	-0.253469
363.047000	-0.292017
363.221000	-0.323775
363.395000	-0.200570
363.568000	-0.263905
363.742000	-0.164193
363.916000	-0.177885
364.090000	-0.293579
364.263000	-0.264022
364.437000	-0.369887
364.611000	-0.005507
364.785000	-0.000509
364.959000	-0.199384
365.132000	-0.212485
365.306000	-0.288765
365.480000	-0.160947
365.656000	-0.235731
365.831000	-0.239501
366.007000	-0.132614
366.183000	-0.062770
366.358000	-0.179668
366.534000	-0.140254
366.710000	-0.268613
366.886000	-0.120695
367.061000	-0.005720
367.237000	0.061430
367.413000	-0.010858
367.588000	-0.306989
367.764000	-0.246838
367.940000	-0.177744
368.115000	-0.262423
368.291000	-0.304776
368.467000	-0.109553
368.643000	0.172365
368.818000	-0.122312
368.994000	-0.345333
369.170000	-0.267561
369.345000	-0.131508
369.521000	-0.201295
369.697000	-0.104018
369.872000	-0.188744
370.048000	-0.265223
370.224000	-0.199061
370.399000	-0.361114
370.575000	-0.324561
370.751000	-0.426685
370.927000	-0.328449
371.102000	-0.236216
371.278000	-0.316836
371.454000	-0.220512
371.629000	0.026543
371.805000	-0.005953
371.981000	0.158255
372.156000	0.255024
372.332000	0.036726
372.508000	0.059032
372.683000	0.096366
372.859000	-0.043917
373.035000	-0.066309
373.211000	0.334880
373.386000	0.109169
373.562000	-0.394070
373.738000	-0.468447
373.913000	-0.609574
374.089000	-0.436752
374.265000	0.010402
374.440000	-0.006076
374.616000	0.038029
374.792000	-0.091686
374.968000	0.214244
375.143000	-0.070809
375.319000	-0.274413
375.495000	-0.313909
375.670000	-0.264456
375.846000	-0.054863
376.022000	-0.137770
376.197000	-0.027763
376.373000	-0.262836
376.549000	-0.485992
376.724000	-0.556633
376.900000	-0.256123
377.076000	-0.096704
377.252000	0.182787
377.427000	0.268271
377.603000	-0.155259
377.779000	-0.112618
377.954000	-0.247567
378.130000	-0.199786
378.306000	-0.117011
378.481000	-0.105985
378.657000	-0.215611
378.833000	-0.272858
379.009000	-0.043018
379.184000	0.052339
379.360000	0.057121
379.536000	0.047027
379.711000	-0.156318
379.887000	-0.175191
380.063000	-0.215225
380.238000	-0.280020
380.414000	0.025693
380.590000	-0.238769
380.765000	-0.333031
380.941000	-0.037054
381.117000	-0.036818
381.293000	-0.114334
381.468000	-0.123292
381.644000	-0.125131
381.820000	-0.156421
381.995000	0.020466
382.171000	0.315817
382.347000	0.278573
382.522000	-0.136672
382.698000	0.166203
382.874000	0.191966
383.050000	-0.230944
383.225000	0.203385
383.401000	0.261754
383.577000	-0.174862
383.752000	-0.212936
383.928000	-0.047041
384.104000	-0.016426
384.279000	-0.143713
384.455000	-0.093274
384.631000	-0.175983
384.806000	-0.283110
384.982000	-0.072852
385.158000	-0.177710
385.334000	-0.108279
385.509000	-0.119037
385.685000	-0.377387
385.861000	-0.152331
386.036000	-0.253485
386.212000	-0.513146
386.388000	-0.282062
386.563000	-0.261089
386.739000	-0.387772
386.915000	-0.473131
387.090000	-0.239560
387.266000	-0.135158
387.442000	-0.026385
387.618000	-0.031309
387.793000	-0.295597
387.969000	-0.476542
388.145000	-0.294599
388.320000	-0.213733
388.496000	-0.270134
388.672000	-0.506180
388.847000	-0.031159
389.023000	0.025190
389.199000	-0.393263
389.375000	-0.158425
389.550000	-0.243165
389.726000	-0.167758
389.902000	-0.383426
390.077000	-0.170882
390.253000	-0.092270
390.429000	-0.159471
390.604000	-0.051431
390.780000	-0.101844
390.956000	-0.156362
391.131000	-0.161082
391.307000	0.029628
391.483000	-0.010541
391.659000	-0.206987
391.834000	-0.095778
392.010000	-0.195803
392.186000	-0.241125
392.361000	-0.070836
392.537000	-0.333856
392.713000	0.073591
392.888000	0.414996
393.064000	0.073964
393.240000	-0.203507
393.416000	-0.325282
393.591000	-0.362327
393.767000	-0.502703
393.943000	-0.358915
394.118000	0.097165
394.294000	0.272760
394.470000	0.111452
394.645000	0.111098
394.821000	0.404516
394.997000	0.023761
395.172000	-0.000482
395.348000	-0.150309
395.524000	-0.445593
395.700000	-0.185384
395.875000	-0.077090
396.051000	-0.100899
396.227000	-0.154644
396.402000	-0.199054
396.578000	-0.159899
396.754000	-0.255123
396.929000	-0.153538
397.105000	0.109369
397.281000	0.032944
397.457000	-0.181377
397.632000	-0.122941
397.808000	-0.318080
397.984000	-0.480649
398.159000	-0.443394
398.335000	-0.247581
398.511000	0.284123
398.686000	0.056386
398.862000	-0.287555
399.038000	-0.366615
399.213000	-0.131286
399.389000	-0.409912
399.565000	-0.183496
399.741000	0.177666
399.916000	0.179382
400.092000	0.244444
400.268000	-0.135930
400.443000	-0.302990
400.619000	0.056144
400.795000	-0.043092
400.970000	-0.220085
401.146000	-0.164654
401.322000	0.155377
401.497000	0.556397
401.673000	0.255677
401.849000	-0.090302
402.025000	0.103101
402.200000	-0.075590
402.376000	-0.183494
402.552000	0.268133
402.727000	0.037053
402.903000	-0.234489
403.079000	-0.150343
403.254000	0.144847
403.430000	0.148536
403.606000	0.046174
403.782000	0.046116
403.957000	-0.191994
404.133000	-0.412613
404.309000	-0.239252
404.484000	0.036856
404.660000	0.050994
404.841000	-0.178354
405.023000	0.064713
405.204000	0.046227
405.385000	-0.183409
405.566000	-0.266638
405.748000	-0.104276
405.929000	0.141783
406.110000	0.060464
406.292000	-0.065429
406.473000	-0.042331
406.654000	-0.150509
406.835000	0.013551
407.017000	-0.084257
407.198000	-0.101730
407.379000	0.022493
407.560000	0.031773
407.742000	-0.135040
407.923000	-0.051796
408.104000	-0.195518
408.286000	-0.051446
408.467000	0.013407
408.648000	-0.199878
408.829000	-0.300843
409.011000	-0.148527
409.192000	-0.242007
409.373000	0.032008
409.555000	0.045932
409.736000	0.031799
409.917000	-0.097601
410.098000	-0.096955
410.280000	0.036038
410.461000	0.127046
410.642000	0.104471
410.823000	0.373495
411.005000	0.378537
411.186000	0.049805
411.367000	-0.046189
411.549000	0.054382
411.730000	0.223404
411.911000	0.282319
412.092000	0.140511
412.274000	0.171044
412.455000	0.112607
412.636000	0.117236
412.818000	-0.013976
412.999000	-0.090008
413.180000	0.040095
413.361000	0.076419
413.543000	-0.013943
413.724000	-0.094658
413.905000	-0.108120
414.087000	-0.099355
414.268000	-0.093819
414.449000	-0.076176
414.630000	-0.156969
414.812000	-0.187891
414.993000	0.251763
415.174000	0.362551
415.355000	0.164356
415.537000	-0.133475
415.718000	0.123847
415.899000	0.092497
416.081000	0.008374
416.262000	0.206288
416.443000	0.087310
416.624000	0.148390
416.806000	0.245161
416.987000	0.365318
417.168000	0.279904
417.350000	0.082769
417.531000	0.034389
417.712000	0.082265
417.893000	0.373754
418.075000	0.476388
418.256000	0.216931
418.437000	0.318195
418.618000	0.469267
418.800000	0.564061
418.981000	0.340904
419.162000	0.420274
419.344000	0.552664
419.525000	0.420974
419.706000	0.399694
419.887000	0.585534
420.069000	0.723668
420.250000	0.649784
420.431000	0.583342
420.613000	0.486177
420.794000	0.304272
420.975000	0.697461
421.156000	0.517523
421.338000	0.508476
421.519000	0.473877
421.700000	0.501231
421.882000	0.553029
422.063000	0.737145
422.244000	1.188320
422.425000	0.843917
422.607000	0.530628
422.788000	0.558497
422.969000	0.520212
423.150000	0.490660
423.332000	0.429110
423.513000	0.757970
423.694000	0.813933
423.876000	0.725093
424.057000	0.807272
424.238000	0.923026
424.419000	0.917016
424.601000	0.812562
424.782000	0.889918
424.963000	1.115118
425.145000	1.074976
425.326000	1.126265
425.507000	1.064489
425.688000	0.944741
425.870000	0.822847
426.051000	0.718239
426.232000	0.825756
426.413000	0.982106
426.595000	0.981270
426.776000	0.838795
426.957000	0.872670
427.139000	1.071267
427.320000	1.158141
427.501000	1.258133
427.682000	1.277896
427.864000	1.341917
428.045000	1.592575
428.226000	1.502699
428.408000	1.128012
428.589000	1.356591
428.770000	1.366449
428.951000	1.243602
429.133000	1.162642
429.314000	1.349583
429.495000	1.426261
429.677000	1.525619
429.858000	1.428571
430.039000	1.507584
430.220000	1.606681
430.402000	1.683045
430.583000	1.463712
430.764000	1.620394
430.945000	1.833511
431.127000	1.888495
431.308000	1.790900
431.489000	2.009475
431.671000	2.167359
431.852000	2.118886
432.033000	1.923731
432.214000	2.068335
432.396000	2.286963
432.577000	2.130988
432.758000	1.894469
432.940000	2.066455
433.121000	2.208411
433.302000	2.230678
433.483000	2.466638
433.665000	2.560794
433.846000	2.530753
434.027000	2.431062
434.208000	2.419503
434.390000	2.499866
434.571000	2.845647
434.752000	3.233593
434.934000	3.103836
435.115000	3.049184
435.296000	3.210408
435.477000	3.055846
435.659000	2.859565
435.840000	3.127605
436.026000	3.060898
436.211000	2.975560
436.397000	2.817280
436.582000	3.033845
436.768000	3.365942
436.953000	3.304328
437.139000	3.337792
437.325000	3.731996
437.510000	3.755748
437.696000	3.963786
437.881000	4.017987
438.067000	3.682397
438.252000	3.793433
438.438000	3.878917
438.624000	3.971273
438.809000	4.082791
438.995000	4.217559
439.180000	4.276088
439.366000	4.418534
439.551000	4.476069
439.737000	4.625277
439.923000	4.694715
440.108000	4.759763
440.294000	4.902994
440.479000	5.152900
440.665000	5.299070
440.850000	5.409454
441.036000	5.476284
441.222000	5.515101
441.407000	5.558611
441.593000	5.860496
441.778000	6.032741
441.964000	6.408285
442.149000	6.236771
442.335000	6.259352
442.521000	6.537189
442.706000	6.859435
442.892000	6.840822
443.077000	6.986515
443.263000	7.328103
443.448000	7.397821
443.634000	7.479182
443.820000	7.877869
444.005000	7.974799
444.191000	7.968658
444.376000	8.202597
444.562000	8.587023
444.747000	8.876674
444.933000	8.952725
445.119000	9.077379
445.304000	9.236265
445.490000	9.565429
445.675000	9.755428
445.861000	9.830147
446.046000	10.010698
446.232000	10.217332
446.418000	10.567945
446.603000	10.779459
446.789000	10.857285
446.974000	11.080742
447.160000	11.104209
447.345000	11.472085
447.531000	11.702703
447.717000	12.090957
447.902000	12.339647
448.088000	12.564848
448.273000	12.485469
448.459000	12.553642
448.644000	12.888906
448.830000	13.074153
449.016000	13.041051
449.201000	13.329410
449.387000	13.637238
449.572000	13.810646
449.758000	13.827462
449.943000	13.947026
450.129000	14.104968
450.315000	14.144593
450.500000	14.212064
450.686000	14.488706
450.871000	14.598515
451.057000	14.683987
451.243000	14.817832
451.428000	14.874604
451.614000	14.942260
451.799000	14.951714
451.985000	15.290170
452.170000	15.268273
452.356000	14.993504
452.542000	15.007786
452.727000	15.110518
452.913000	15.091492
453.098000	15.152238
453.284000	15.344168
453.469000	15.168036
453.655000	15.163713
453.841000	14.949903
454.026000	14.775342
454.212000	14.638703
454.397000	14.364250
454.583000	14.339257
454.768000	14.195524
454.954000	14.091882
455.140000	14.151107
455.325000	13.945632
455.511000	13.712499
455.696000	13.644920
455.882000	13.784363
456.067000	13.823525
456.253000	13.487867
456.439000	13.109538
456.624000	12.900503
456.810000	12.753523
456.995000	12.831968
457.181000	12.654413
457.366000	12.590020
457.552000	12.299887
457.738000	12.293273
457.923000	12.190266
458.109000	12.384447
458.294000	12.186460
458.480000	12.044277
458.665000	11.890899
