Wavelength	Irradiance
(nm)	(mW/cm2/nm)

294.396000	0.000000
294.577000	0.000000
294.757000	0.000000
294.938000	-0.000000
295.118000	0.000000
295.299000	0.000000
295.479000	-0.000000
295.660000	-0.000000
295.840000	-0.000000
296.021000	-0.000000
296.202000	-0.000000
296.382000	-0.000000
296.563000	-0.000000
296.743000	-0.000000
296.924000	0.000000
297.104000	0.000000
297.285000	-0.000000
297.465000	-0.000000
297.646000	-0.000000
297.826000	0.000000
298.007000	0.000000
298.187000	0.000000
298.368000	-0.000000
298.548000	0.000000
298.729000	0.000000
298.909000	0.000000
299.090000	-0.000000
299.270000	-0.000000
299.451000	-0.000000
299.631000	-0.000000
299.812000	-0.000000
299.992000	0.000000
300.173000	0.000000
300.353000	-0.000000
300.534000	0.000000
300.714000	0.000000
300.895000	0.000000
301.075000	0.000000
301.256000	0.000000
301.436000	-0.000000
301.617000	0.000000
301.797000	-0.000000
301.978000	0.000000
302.159000	0.000000
302.339000	0.000000
302.520000	-0.000000
302.700000	-0.000000
302.881000	0.000000
303.061000	0.000000
303.242000	0.000000
303.422000	0.000000
303.603000	-0.000000
303.783000	-0.000000
303.964000	0.000000
304.144000	-0.000000
304.325000	-0.000000
304.505000	0.000000
304.686000	0.000000
304.866000	0.000000
305.047000	0.000000
305.227000	-0.000000
305.408000	-0.000000
305.588000	-0.000000
305.769000	-0.000000
305.949000	-0.000000
306.130000	-0.000000
306.310000	-0.000000
306.491000	-0.000000
306.671000	0.000000
306.852000	-0.000000
307.032000	-0.000000
307.213000	0.000000
307.393000	-0.000000
307.574000	0.000000
307.755000	0.000000
307.935000	0.000000
308.116000	-0.000000
308.296000	-0.000000
308.477000	0.000000
308.657000	0.000000
308.838000	0.000000
309.018000	0.000000
309.199000	-0.000000
309.379000	-0.000000
309.560000	0.000000
309.740000	0.000000
309.921000	0.000000
310.101000	0.000000
310.282000	-0.000000
310.462000	-0.000000
310.643000	-0.000000
310.823000	-0.000000
311.004000	-0.000000
311.184000	-0.000000
311.365000	0.000000
311.545000	0.000000
311.726000	0.000000
311.906000	0.000000
312.087000	0.000000
312.267000	-0.000000
312.448000	-0.000000
312.628000	-0.000000
312.809000	-0.000000
312.989000	-0.000000
313.170000	-0.000000
313.344000	0.000000
313.518000	-0.000000
313.691000	-0.000000
313.865000	-0.000000
314.039000	-0.000000
314.213000	-0.000000
314.387000	-0.000000
314.560000	-0.000000
314.734000	-0.000000
314.908000	-0.000000
315.082000	-0.000000
315.255000	0.000000
315.429000	0.000000
315.603000	0.000000
315.777000	-0.000000
315.951000	0.000000
316.124000	-0.000000
316.298000	-0.000000
316.472000	-0.000000
316.646000	-0.000000
316.820000	-0.000000
316.993000	0.000000
317.167000	-0.000000
317.341000	-0.000000
317.515000	-0.000000
317.688000	-0.000000
317.862000	-0.000000
318.036000	-0.000000
318.210000	-0.000000
318.384000	-0.000000
318.557000	-0.000000
318.731000	-0.000000
318.905000	0.000000
319.079000	0.000000
319.253000	-0.000000
319.426000	0.000000
319.600000	0.000000
319.774000	-0.000000
319.948000	-0.000000
320.122000	0.000000
320.295000	0.000000
320.469000	-0.000000
320.643000	-0.000000
320.817000	-0.000000
320.990000	-0.000000
321.164000	-0.000000
321.338000	-0.000000
321.512000	-0.000000
321.686000	-0.000000
321.859000	-0.000000
322.033000	0.000000
322.207000	-0.000000
322.381000	0.000000
322.555000	0.000000
322.728000	0.000000
322.902000	-0.000000
323.076000	-0.000000
323.250000	-0.000000
323.423000	-0.000000
323.597000	-0.000000
323.771000	-0.000000
323.945000	-0.000000
324.119000	-0.000000
324.292000	0.000000
324.466000	-0.000000
324.640000	0.000000
324.814000	0.000000
324.988000	0.000000
325.161000	0.000000
325.335000	-0.000000
325.509000	-0.000000
325.683000	0.000000
325.856000	0.000000
326.030000	-0.000000
326.204000	-0.000000
326.378000	-0.000000
326.552000	-0.000000
326.725000	-0.000000
326.899000	-0.000000
327.073000	-0.000000
327.247000	-0.000000
327.421000	0.000000
327.594000	0.000000
327.768000	-0.000000
327.942000	-0.000000
328.116000	0.000000
328.289000	0.000000
328.463000	0.000000
328.637000	0.000000
328.811000	-0.000000
328.985000	-0.000000
329.158000	0.000000
329.332000	-0.000000
329.506000	0.000000
329.680000	-0.000000
329.854000	-0.000000
330.027000	0.000000
330.201000	0.000000
330.375000	0.000000
330.549000	0.000000
330.723000	0.000000
330.896000	-0.000000
331.070000	-0.000000
331.244000	-0.000000
331.418000	-0.000000
331.591000	0.000000
331.765000	-0.000000
331.939000	-0.000000
332.113000	0.000000
332.287000	-0.000000
332.460000	0.000000
332.634000	0.000000
332.808000	-0.000000
332.982000	-0.000000
333.156000	-0.000000
333.329000	0.000000
333.503000	-0.000000
333.677000	-0.000000
333.851000	-0.000000
334.024000	0.000000
334.198000	-0.000000
334.372000	-0.000000
334.546000	-0.000000
334.720000	-0.000000
334.893000	-0.000000
335.067000	0.000000
335.241000	0.000000
335.415000	-0.000000
335.589000	-0.000000
335.762000	-0.000000
335.936000	-0.000000
336.110000	-0.000000
336.284000	-0.000000
336.458000	0.000000
336.631000	-0.000000
336.805000	-0.000000
336.979000	-0.000000
337.153000	-0.000000
337.326000	-0.000000
337.500000	0.000000
337.674000	0.000000
337.848000	-0.000000
338.022000	0.000000
338.195000	-0.000000
338.369000	-0.000000
338.543000	-0.000000
338.717000	-0.000000
338.891000	0.000000
339.064000	0.000000
339.238000	0.000000
339.412000	-0.000000
339.586000	-0.000000
339.759000	-0.000000
339.933000	-0.000000
340.107000	0.000000
340.281000	0.000000
340.455000	-0.000000
340.628000	-0.000000
340.802000	-0.000000
340.976000	0.000000
341.150000	-0.000000
341.324000	-0.000000
341.497000	-0.000000
341.671000	-0.000000
341.845000	-0.000000
342.019000	-0.000000
342.192000	-0.000000
342.366000	-0.000000
342.540000	-0.000000
342.714000	-0.000000
342.888000	-0.000000
343.061000	0.000000
343.235000	-0.000000
343.409000	-0.000000
343.583000	-0.000000
343.757000	-0.000000
343.930000	-0.000000
344.104000	-0.000000
344.278000	0.000000
344.452000	0.000000
344.626000	-0.000000
344.799000	-0.000000
344.973000	-0.000000
345.147000	-0.000000
345.321000	-0.000000
345.494000	-0.000000
345.668000	0.000000
345.842000	0.000000
346.016000	-0.000000
346.190000	0.000000
346.363000	0.000000
346.537000	0.000000
346.711000	0.000000
346.885000	-0.000000
347.059000	-0.000000
347.232000	0.000000
347.406000	0.000000
347.580000	-0.000000
347.754000	-0.000000
347.927000	0.000000
348.101000	0.000000
348.275000	-0.000000
348.449000	-0.000000
348.623000	-0.000000
348.796000	0.000000
348.970000	0.000000
349.144000	-0.000000
349.318000	-0.000000
349.492000	-0.000000
349.665000	-0.000000
349.839000	-0.000000
350.013000	-0.000000
350.187000	-0.000000
350.361000	-0.000000
350.534000	0.000000
350.708000	0.000000
350.882000	0.000000
351.056000	0.000000
351.229000	-0.000000
351.403000	-0.000000
351.577000	-0.000000
351.751000	-0.000000
351.925000	-0.000000
352.098000	-0.000000
352.272000	-0.000000
352.446000	-0.000000
352.620000	-0.000000
352.794000	-0.000000
352.967000	-0.000000
353.141000	0.000000
353.315000	0.000000
353.489000	-0.000000
353.662000	-0.000000
353.836000	-0.000000
354.010000	-0.000000
354.184000	0.000000
354.358000	-0.000000
354.531000	-0.000000
354.705000	-0.000000
354.879000	-0.000000
355.053000	-0.000000
355.227000	0.000000
355.400000	-0.000000
355.574000	0.000000
355.748000	0.000000
355.922000	-0.000000
356.095000	-0.000000
356.269000	0.000000
356.443000	-0.000000
356.617000	-0.000000
356.791000	-0.000000
356.964000	-0.000000
357.138000	-0.000000
357.312000	-0.000000
357.486000	-0.000000
357.660000	0.000000
357.833000	0.000000
358.007000	-0.000000
358.181000	-0.000000
358.355000	-0.000000
358.529000	-0.000000
358.702000	-0.000000
358.876000	-0.000000
359.050000	-0.000000
359.224000	-0.000000
359.397000	0.000000
359.571000	0.000000
359.745000	0.000000
359.919000	-0.000000
360.093000	0.025412
360.266000	0.116888
360.440000	0.167613
360.614000	0.218723
360.788000	0.123070
360.962000	-0.132127
361.135000	0.032878
361.309000	-0.062184
361.483000	-0.237202
361.657000	-0.183474
361.830000	-0.167109
362.004000	-0.001265
362.178000	-0.244134
362.352000	-0.180299
362.526000	0.019283
362.699000	0.037262
362.873000	-0.251723
363.047000	-0.246352
363.221000	-0.240824
363.395000	-0.102645
363.568000	-0.121481
363.742000	-0.137885
363.916000	-0.130356
364.090000	-0.239795
364.263000	-0.163710
364.437000	-0.219182
364.611000	0.069631
364.785000	0.004164
364.959000	-0.164081
365.132000	-0.143868
365.306000	-0.142061
365.480000	0.015042
365.656000	-0.050504
365.831000	-0.072261
366.007000	-0.070606
366.183000	-0.004244
366.358000	-0.133637
366.534000	-0.077632
366.710000	-0.184200
366.886000	-0.092623
367.061000	0.041127
367.237000	0.142195
367.413000	0.015511
367.588000	-0.217597
367.764000	-0.195813
367.940000	-0.234560
368.115000	-0.195710
368.291000	-0.213167
368.467000	-0.117530
368.643000	0.267192
368.818000	-0.160291
368.994000	-0.260065
369.170000	-0.164585
369.345000	-0.121458
369.521000	-0.158333
369.697000	-0.060896
369.872000	-0.151054
370.048000	-0.228344
370.224000	-0.209255
370.399000	-0.376958
370.575000	-0.289065
370.751000	-0.388888
370.927000	-0.377406
371.102000	-0.330334
371.278000	-0.224576
371.454000	-0.174127
371.629000	0.072390
371.805000	0.033946
371.981000	0.183693
372.156000	0.384094
372.332000	0.204679
372.508000	0.149180
372.683000	0.060198
372.859000	-0.069499
373.035000	-0.070245
373.211000	0.355425
373.386000	0.133157
373.562000	-0.263840
373.738000	-0.374034
373.913000	-0.520543
374.089000	-0.343513
374.265000	0.073163
374.440000	0.058749
374.616000	0.073653
374.792000	-0.103823
374.968000	0.270916
375.143000	0.030957
375.319000	-0.168801
375.495000	-0.198926
375.670000	-0.136610
375.846000	-0.025185
376.022000	-0.199095
376.197000	-0.135101
376.373000	-0.340164
376.549000	-0.373915
376.724000	-0.387749
376.900000	-0.222190
377.076000	-0.091798
377.252000	0.147125
377.427000	0.291797
377.603000	-0.065480
377.779000	-0.074238
377.954000	-0.204992
378.130000	-0.072935
378.306000	-0.053427
378.481000	-0.081969
378.657000	-0.158811
378.833000	-0.249957
379.009000	-0.123115
379.184000	0.047581
379.360000	0.064315
379.536000	0.007205
379.711000	-0.121597
379.887000	-0.241062
380.063000	-0.261354
380.238000	-0.260317
380.414000	0.030030
380.590000	-0.197811
380.765000	-0.194320
380.941000	-0.007117
381.117000	0.041014
381.293000	-0.108643
381.468000	-0.277652
381.644000	-0.177006
381.820000	-0.086454
381.995000	0.052953
382.171000	0.260265
382.347000	0.219737
382.522000	-0.161379
382.698000	0.157724
382.874000	0.168839
383.050000	-0.201380
383.225000	0.226723
383.401000	0.384834
383.577000	-0.010085
383.752000	-0.173797
383.928000	-0.102916
384.104000	-0.041909
384.279000	-0.099794
384.455000	-0.026703
384.631000	-0.083042
384.806000	-0.301280
384.982000	-0.018319
385.158000	-0.052588
385.334000	0.062980
385.509000	-0.077297
385.685000	-0.381147
385.861000	-0.115640
386.036000	-0.240766
386.212000	-0.423622
386.388000	-0.166138
386.563000	-0.160249
386.739000	-0.263334
386.915000	-0.474038
387.090000	-0.174320
387.266000	0.035308
387.442000	0.156619
387.618000	0.071391
387.793000	-0.241429
387.969000	-0.416286
388.145000	-0.296897
388.320000	-0.297685
388.496000	-0.301074
388.672000	-0.441590
388.847000	-0.043186
389.023000	0.018227
389.199000	-0.297379
389.375000	-0.068075
389.550000	-0.177858
389.726000	-0.092610
389.902000	-0.295436
390.077000	-0.107968
390.253000	-0.068125
390.429000	-0.127260
390.604000	-0.026387
390.780000	0.020728
390.956000	-0.171400
391.131000	-0.198444
391.307000	0.152019
391.483000	-0.047916
391.659000	-0.166194
391.834000	0.028720
392.010000	-0.181645
392.186000	-0.266600
392.361000	-0.174007
392.537000	-0.335167
392.713000	0.251887
392.888000	0.446517
393.064000	0.060922
393.240000	-0.133690
393.416000	-0.234868
393.591000	-0.306858
393.767000	-0.310545
393.943000	-0.234337
394.118000	0.057260
394.294000	0.248851
394.470000	0.080967
394.645000	0.152158
394.821000	0.387260
394.997000	0.009257
395.172000	-0.027626
395.348000	-0.143674
395.524000	-0.382851
395.700000	-0.213649
395.875000	-0.022200
396.051000	-0.082162
396.227000	-0.164236
396.402000	-0.207375
396.578000	-0.088272
396.754000	-0.218826
396.929000	-0.168278
397.105000	0.082060
397.281000	0.032553
397.457000	-0.094778
397.632000	-0.080933
397.808000	-0.345186
397.984000	-0.470665
398.159000	-0.427331
398.335000	-0.216434
398.511000	0.288478
398.686000	0.086582
398.862000	-0.139906
399.038000	-0.305975
399.213000	-0.047146
399.389000	-0.368368
399.565000	-0.067835
399.741000	0.182822
399.916000	0.104557
400.092000	0.278741
400.268000	-0.014013
400.443000	-0.135359
400.619000	0.217458
400.795000	0.104609
400.970000	-0.098127
401.146000	-0.167596
401.322000	0.153273
401.497000	0.523834
401.673000	0.221222
401.849000	-0.055445
402.025000	0.142519
402.200000	-0.021768
402.376000	-0.172786
402.552000	0.250611
402.727000	0.113846
402.903000	-0.200407
403.079000	-0.152003
403.254000	0.177703
403.430000	0.156198
403.606000	0.085224
403.782000	0.072413
403.957000	-0.197473
404.133000	-0.407461
404.309000	-0.256661
404.484000	0.041988
404.660000	0.039553
404.841000	-0.054898
405.023000	0.219660
405.204000	0.161731
405.385000	-0.188057
405.566000	-0.263624
405.748000	-0.063055
405.929000	0.192694
406.110000	0.152119
406.292000	-0.011390
406.473000	0.059628
406.654000	-0.136826
406.835000	-0.011469
407.017000	-0.072365
407.198000	-0.053982
407.379000	-0.016275
407.560000	-0.031397
407.742000	-0.051890
407.923000	0.034361
408.104000	-0.107660
408.286000	-0.003792
408.467000	0.092045
408.648000	-0.127743
408.829000	-0.205435
409.011000	-0.003786
409.192000	-0.171022
409.373000	-0.016447
409.555000	0.110085
409.736000	0.152080
409.917000	0.092092
410.098000	0.068925
410.280000	0.138096
410.461000	0.093142
410.642000	0.135617
410.823000	0.356953
411.005000	0.232876
411.186000	0.098446
411.367000	0.018708
411.549000	-0.011217
411.730000	0.230506
411.911000	0.314701
412.092000	0.157501
412.274000	0.116928
412.455000	0.109770
412.636000	0.171595
412.818000	0.013526
412.999000	-0.064728
413.180000	0.028259
413.361000	0.055495
413.543000	-0.025759
413.724000	-0.025693
413.905000	0.042824
414.087000	-0.042913
414.268000	0.001213
414.449000	0.030373
414.630000	-0.086595
414.812000	-0.157016
414.993000	0.237724
415.174000	0.397201
415.355000	0.217441
415.537000	0.003628
415.718000	0.318393
415.899000	0.177431
416.081000	0.030051
416.262000	0.274704
416.443000	0.178289
416.624000	0.201753
416.806000	0.371988
416.987000	0.527606
417.168000	0.426486
417.350000	0.216179
417.531000	0.184013
417.712000	0.233856
417.893000	0.490084
418.075000	0.601741
418.256000	0.373473
418.437000	0.491637
418.618000	0.589500
418.800000	0.692789
418.981000	0.470171
419.162000	0.539734
419.344000	0.717689
419.525000	0.614932
419.706000	0.515976
419.887000	0.690140
420.069000	0.916460
420.250000	0.802724
420.431000	0.767752
420.613000	0.667115
420.794000	0.468933
420.975000	0.849454
421.156000	0.686289
421.338000	0.652797
421.519000	0.664424
421.700000	0.614498
421.882000	0.675710
422.063000	0.876387
422.244000	1.351826
422.425000	1.096164
422.607000	0.777600
422.788000	0.762177
422.969000	0.742824
423.150000	0.717839
423.332000	0.673597
423.513000	0.920188
423.694000	0.974640
423.876000	1.023509
424.057000	1.117907
424.238000	1.183590
424.419000	1.260556
424.601000	1.139460
424.782000	1.166737
424.963000	1.401386
425.145000	1.273292
425.326000	1.293628
425.507000	1.376041
425.688000	1.291226
425.870000	1.133291
426.051000	1.095023
426.232000	1.179428
426.413000	1.219419
426.595000	1.257657
426.776000	1.327502
426.957000	1.455824
427.139000	1.477839
427.320000	1.536250
427.501000	1.710310
427.682000	1.626571
427.864000	1.741012
428.045000	1.979848
428.226000	1.875559
428.408000	1.566015
428.589000	1.769160
428.770000	1.826296
428.951000	1.722235
429.133000	1.600052
429.314000	1.787158
429.495000	1.844133
429.677000	1.869370
429.858000	1.969703
430.039000	2.105594
430.220000	2.298160
430.402000	2.335366
430.583000	2.090237
430.764000	2.130900
430.945000	2.340727
431.127000	2.500383
431.308000	2.401136
431.489000	2.639737
431.671000	2.743841
431.852000	2.681475
432.033000	2.695671
432.214000	2.845314
432.396000	2.870091
432.577000	2.707698
432.758000	2.666215
432.940000	2.855511
433.121000	3.023611
433.302000	3.025123
433.483000	3.258359
433.665000	3.476456
433.846000	3.429742
434.027000	3.330519
434.208000	3.323872
434.390000	3.450738
434.571000	4.018584
434.752000	4.444155
434.934000	4.252311
435.115000	4.262934
435.296000	4.438514
435.477000	4.346321
435.659000	4.141686
435.840000	4.250885
436.026000	4.321123
436.211000	4.316386
436.397000	4.048339
436.582000	4.248994
436.768000	4.579350
436.953000	4.535352
437.139000	4.747258
437.325000	5.086325
437.510000	5.037028
437.696000	5.349564
437.881000	5.440051
438.067000	5.164078
438.252000	5.347315
438.438000	5.441902
438.624000	5.588617
438.809000	5.790053
438.995000	5.996401
439.180000	6.079793
439.366000	6.173076
439.551000	6.292428
439.737000	6.519252
439.923000	6.717953
440.108000	6.771706
440.294000	6.981223
440.479000	7.275931
440.665000	7.482155
440.850000	7.523221
441.036000	7.718723
441.222000	7.866532
441.407000	7.905559
441.593000	8.201569
441.778000	8.585835
441.964000	8.908689
442.149000	8.686829
442.335000	8.907913
442.521000	9.275875
442.706000	9.675165
442.892000	9.842032
443.077000	10.021497
443.263000	10.282041
443.448000	10.455687
443.634000	10.670704
443.820000	11.262941
444.005000	11.360762
444.191000	11.431903
444.376000	11.725633
444.562000	12.164799
444.747000	12.614540
444.933000	12.816140
445.119000	12.877380
445.304000	12.957472
445.490000	13.487078
445.675000	13.790834
445.861000	13.915496
446.046000	14.168749
446.232000	14.513999
446.418000	14.837781
446.603000	15.137356
446.789000	15.495110
446.974000	15.615319
447.160000	15.709507
447.345000	16.047492
447.531000	16.221265
447.717000	16.806156
447.902000	17.298609
448.088000	17.369678
448.273000	17.344974
448.459000	17.557773
448.644000	17.591384
448.830000	17.735937
449.016000	17.923078
449.201000	18.161850
449.387000	18.608863
449.572000	18.815070
449.758000	18.615524
449.943000	18.771165
450.129000	18.800755
450.315000	18.891686
450.500000	18.871998
450.686000	19.017161
450.871000	19.037430
451.057000	19.239826
451.243000	19.255736
451.428000	19.251521
451.614000	19.067657
451.799000	18.920098
451.985000	19.184075
452.170000	19.185804
452.356000	18.856261
452.542000	18.832812
452.727000	18.791527
452.913000	18.542805
453.098000	18.572904
453.284000	18.725584
453.469000	18.447815
453.655000	18.371941
453.841000	18.070055
454.026000	17.629856
454.212000	17.389414
454.397000	17.293998
454.583000	17.085048
454.768000	16.767353
454.954000	16.646568
455.140000	16.460524
455.325000	16.104168
455.511000	15.964890
455.696000	15.814145
455.882000	15.717565
456.067000	15.815882
456.253000	15.339212
456.439000	14.948109
456.624000	14.696303
456.810000	14.400842
456.995000	14.396711
457.181000	14.145144
457.366000	14.069267
457.552000	13.877571
457.738000	13.732162
457.923000	13.600931
458.109000	13.714311
458.294000	13.476709
458.480000	13.228277
458.665000	13.047089
458.851000	12.773884
