Wavelength	Irradiance
(nm)	(mW/cm2/nm)

294.396000	0.000000
294.577000	0.000000
294.757000	0.000000
294.938000	-0.000000
295.118000	0.000000
295.299000	0.000000
295.479000	0.000000
295.660000	-0.000000
295.840000	-0.000000
296.021000	-0.000000
296.202000	0.000000
296.382000	-0.000000
296.563000	-0.000000
296.743000	-0.000000
296.924000	0.000000
297.104000	0.000000
297.285000	-0.000000
297.465000	-0.000000
297.646000	-0.000000
297.826000	0.000000
298.007000	0.000000
298.187000	0.000000
298.368000	-0.000000
298.548000	0.000000
298.729000	0.000000
298.909000	0.000000
299.090000	-0.000000
299.270000	-0.000000
299.451000	-0.000000
299.631000	-0.000000
299.812000	-0.000000
299.992000	0.000000
300.173000	0.000000
300.353000	0.000000
300.534000	0.000000
300.714000	0.000000
300.895000	0.000000
301.075000	-0.000000
301.256000	0.000000
301.436000	-0.000000
301.617000	0.000000
301.797000	-0.000000
301.978000	0.000000
302.159000	0.000000
302.339000	0.000000
302.520000	-0.000000
302.700000	-0.000000
302.881000	0.000000
303.061000	0.000000
303.242000	0.000000
303.422000	0.000000
303.603000	0.000000
303.783000	-0.000000
303.964000	0.000000
304.144000	0.000000
304.325000	0.000000
304.505000	0.000000
304.686000	0.000000
304.866000	0.000000
305.047000	0.000000
305.227000	-0.000000
305.408000	-0.000000
305.588000	-0.000000
305.769000	-0.000000
305.949000	-0.000000
306.130000	-0.000000
306.310000	-0.000000
306.491000	-0.000000
306.671000	0.000000
306.852000	-0.000000
307.032000	-0.000000
307.213000	0.000000
307.393000	-0.000000
307.574000	0.000000
307.755000	0.000000
307.935000	0.000000
308.116000	0.000000
308.296000	-0.000000
308.477000	0.000000
308.657000	0.000000
308.838000	0.000000
309.018000	0.000000
309.199000	0.000000
309.379000	0.000000
309.560000	0.000000
309.740000	-0.000000
309.921000	0.000000
310.101000	0.000000
310.282000	-0.000000
310.462000	-0.000000
310.643000	-0.000000
310.823000	-0.000000
311.004000	0.000000
311.184000	-0.000000
311.365000	0.000000
311.545000	0.000000
311.726000	0.000000
311.906000	0.000000
312.087000	0.000000
312.267000	-0.000000
312.448000	-0.000000
312.628000	-0.000000
312.809000	0.000000
312.989000	-0.000000
313.170000	-0.000000
313.344000	-0.000000
313.518000	-0.000000
313.691000	-0.000000
313.865000	-0.000000
314.039000	-0.000000
314.213000	-0.000000
314.387000	-0.000000
314.560000	-0.000000
314.734000	-0.000000
314.908000	-0.000000
315.082000	-0.000000
315.255000	0.000000
315.429000	0.000000
315.603000	0.000000
315.777000	-0.000000
315.951000	0.000000
316.124000	-0.000000
316.298000	-0.000000
316.472000	-0.000000
316.646000	-0.000000
316.820000	-0.000000
316.993000	0.000000
317.167000	-0.000000
317.341000	-0.000000
317.515000	0.000000
317.688000	-0.000000
317.862000	-0.000000
318.036000	-0.000000
318.210000	-0.000000
318.384000	-0.000000
318.557000	-0.000000
318.731000	-0.000000
318.905000	0.000000
319.079000	0.000000
319.253000	0.000000
319.426000	0.000000
319.600000	0.000000
319.774000	-0.000000
319.948000	-0.000000
320.122000	0.000000
320.295000	0.000000
320.469000	-0.000000
320.643000	-0.000000
320.817000	-0.000000
320.990000	-0.000000
321.164000	-0.000000
321.338000	-0.000000
321.512000	-0.000000
321.686000	-0.000000
321.859000	-0.000000
322.033000	0.000000
322.207000	0.000000
322.381000	-0.000000
322.555000	0.000000
322.728000	0.000000
322.902000	-0.000000
323.076000	-0.000000
323.250000	-0.000000
323.423000	-0.000000
323.597000	-0.000000
323.771000	-0.000000
323.945000	-0.000000
324.119000	-0.000000
324.292000	0.000000
324.466000	-0.000000
324.640000	0.000000
324.814000	0.000000
324.988000	0.000000
325.161000	-0.000000
325.335000	-0.000000
325.509000	-0.000000
325.683000	0.000000
325.856000	-0.000000
326.030000	-0.000000
326.204000	0.000000
326.378000	0.000000
326.552000	0.000000
326.725000	-0.000000
326.899000	-0.000000
327.073000	-0.000000
327.247000	0.000000
327.421000	0.000000
327.594000	0.000000
327.768000	0.000000
327.942000	0.000000
328.116000	0.000000
328.289000	0.000000
328.463000	0.000000
328.637000	0.000000
328.811000	-0.000000
328.985000	-0.000000
329.158000	-0.000000
329.332000	-0.000000
329.506000	0.000000
329.680000	0.000000
329.854000	0.000000
330.027000	0.000000
330.201000	0.000000
330.375000	0.000000
330.549000	0.000000
330.723000	-0.000000
330.896000	-0.000000
331.070000	-0.000000
331.244000	0.000000
331.418000	-0.000000
331.591000	0.000000
331.765000	-0.000000
331.939000	-0.000000
332.113000	-0.000000
332.287000	-0.000000
332.460000	0.000000
332.634000	0.000000
332.808000	-0.000000
332.982000	-0.000000
333.156000	-0.000000
333.329000	0.000000
333.503000	-0.000000
333.677000	-0.000000
333.851000	-0.000000
334.024000	0.000000
334.198000	0.000000
334.372000	-0.000000
334.546000	-0.000000
334.720000	0.000000
334.893000	-0.000000
335.067000	0.000000
335.241000	0.000000
335.415000	0.000000
335.589000	-0.000000
335.762000	-0.000000
335.936000	-0.000000
336.110000	-0.000000
336.284000	-0.000000
336.458000	0.000000
336.631000	-0.000000
336.805000	-0.000000
336.979000	-0.000000
337.153000	-0.000000
337.326000	-0.000000
337.500000	0.000000
337.674000	0.000000
337.848000	0.000000
338.022000	0.000000
338.195000	0.000000
338.369000	-0.000000
338.543000	-0.000000
338.717000	-0.000000
338.891000	0.000000
339.064000	0.000000
339.238000	-0.000000
339.412000	-0.000000
339.586000	-0.000000
339.759000	-0.000000
339.933000	-0.000000
340.107000	0.000000
340.281000	0.000000
340.455000	-0.000000
340.628000	-0.000000
340.802000	-0.000000
340.976000	0.000000
341.150000	0.000000
341.324000	0.000000
341.497000	-0.000000
341.671000	-0.000000
341.845000	-0.000000
342.019000	-0.000000
342.192000	-0.000000
342.366000	-0.000000
342.540000	0.000000
342.714000	-0.000000
342.888000	-0.000000
343.061000	-0.000000
343.235000	-0.000000
343.409000	-0.000000
343.583000	-0.000000
343.757000	0.000000
343.930000	-0.000000
344.104000	-0.000000
344.278000	0.000000
344.452000	0.000000
344.626000	-0.000000
344.799000	-0.000000
344.973000	-0.000000
345.147000	-0.000000
345.321000	-0.000000
345.494000	-0.000000
345.668000	0.000000
345.842000	0.000000
346.016000	-0.000000
346.190000	0.000000
346.363000	0.000000
346.537000	0.000000
346.711000	0.000000
346.885000	-0.000000
347.059000	-0.000000
347.232000	0.000000
347.406000	0.000000
347.580000	-0.000000
347.754000	-0.000000
347.927000	0.000000
348.101000	0.000000
348.275000	-0.000000
348.449000	-0.000000
348.623000	-0.000000
348.796000	0.000000
348.970000	0.000000
349.144000	0.000000
349.318000	0.000000
349.492000	0.000000
349.665000	-0.000000
349.839000	-0.000000
350.013000	-0.000000
350.187000	-0.000000
350.361000	-0.000000
350.534000	0.000000
350.708000	0.000000
350.882000	0.000000
351.056000	0.000000
351.229000	0.000000
351.403000	-0.000000
351.577000	-0.000000
351.751000	-0.000000
351.925000	-0.000000
352.098000	-0.000000
352.272000	0.000000
352.446000	0.000000
352.620000	-0.000000
352.794000	-0.000000
352.967000	0.000000
353.141000	0.000000
353.315000	0.000000
353.489000	-0.000000
353.662000	-0.000000
353.836000	0.000000
354.010000	0.000000
354.184000	0.000000
354.358000	-0.000000
354.531000	-0.000000
354.705000	-0.000000
354.879000	0.000000
355.053000	-0.000000
355.227000	0.000000
355.400000	-0.000000
355.574000	0.000000
355.748000	0.000000
355.922000	-0.000000
356.095000	-0.000000
356.269000	0.000000
356.443000	-0.000000
356.617000	-0.000000
356.791000	-0.000000
356.964000	0.000000
357.138000	0.000000
357.312000	0.000000
357.486000	-0.000000
357.660000	0.000000
357.833000	0.000000
358.007000	-0.000000
358.181000	-0.000000
358.355000	-0.000000
358.529000	-0.000000
358.702000	-0.000000
358.876000	-0.000000
359.050000	-0.000000
359.224000	-0.000000
359.397000	0.000000
359.571000	0.000000
359.745000	0.000000
359.919000	0.000000
360.093000	0.169935
360.266000	0.300013
360.440000	0.323397
360.614000	0.235393
360.788000	0.144313
360.962000	-0.038668
361.135000	0.037059
361.309000	-0.155135
361.483000	-0.221761
361.657000	-0.120551
361.830000	-0.030410
362.004000	0.098830
362.178000	-0.319961
362.352000	-0.188159
362.526000	0.053263
362.699000	0.024970
362.873000	-0.284391
363.047000	-0.309222
363.221000	-0.268767
363.395000	-0.089089
363.568000	-0.046459
363.742000	-0.138191
363.916000	-0.072435
364.090000	-0.162437
364.263000	-0.188866
364.437000	-0.298006
364.611000	0.031539
364.785000	0.077873
364.959000	-0.053202
365.132000	-0.047822
365.306000	-0.135027
365.480000	-0.028579
365.656000	-0.083582
365.831000	-0.045199
366.007000	0.006868
366.183000	0.027494
366.358000	-0.151216
366.534000	-0.107131
366.710000	-0.220149
366.886000	-0.055907
367.061000	0.126358
367.237000	0.115117
367.413000	-0.055324
367.588000	-0.283740
367.764000	-0.213298
367.940000	-0.201722
368.115000	-0.118902
368.291000	-0.218746
368.467000	-0.185357
368.643000	0.221612
368.818000	-0.099015
368.994000	-0.219268
369.170000	-0.153273
369.345000	-0.124173
369.521000	-0.047204
369.697000	0.099662
369.872000	0.044632
370.048000	-0.198242
370.224000	-0.293494
370.399000	-0.408098
370.575000	-0.322365
370.751000	-0.375330
370.927000	-0.220634
371.102000	-0.201140
371.278000	-0.227402
371.454000	-0.121791
371.629000	0.294141
371.805000	0.191033
371.981000	0.269964
372.156000	0.387702
372.332000	0.193211
372.508000	0.147850
372.683000	0.146972
372.859000	-0.009217
373.035000	-0.047677
373.211000	0.370072
373.386000	0.166222
373.562000	-0.249778
373.738000	-0.353352
373.913000	-0.466017
374.089000	-0.336425
374.265000	0.050916
374.440000	0.172882
374.616000	0.249667
374.792000	-0.035924
374.968000	0.372107
375.143000	0.071890
375.319000	-0.261268
375.495000	-0.268525
375.670000	-0.116878
375.846000	0.115702
376.022000	-0.014820
376.197000	0.017964
376.373000	-0.217870
376.549000	-0.281139
376.724000	-0.318451
376.900000	-0.206070
377.076000	-0.196079
377.252000	0.132508
377.427000	0.328355
377.603000	-0.030412
377.779000	0.065649
377.954000	-0.082522
378.130000	0.012061
378.306000	-0.093715
378.481000	-0.109148
378.657000	-0.218759
378.833000	-0.207917
379.009000	-0.019650
379.184000	0.096748
379.360000	0.012053
379.536000	0.080844
379.711000	0.055329
379.887000	-0.083097
380.063000	-0.129344
380.238000	-0.267364
380.414000	0.080224
380.590000	-0.210181
380.765000	-0.183141
380.941000	0.105944
381.117000	0.068969
381.293000	0.058460
381.468000	-0.172405
381.644000	-0.200937
381.820000	-0.014031
381.995000	0.064546
382.171000	0.281019
382.347000	0.375468
382.522000	-0.076976
382.698000	0.199547
382.874000	0.344914
383.050000	-0.014139
383.225000	0.278674
383.401000	0.431711
383.577000	0.112524
383.752000	-0.127969
383.928000	-0.122512
384.104000	-0.046100
384.279000	-0.083258
384.455000	0.089151
384.631000	-0.019095
384.806000	-0.281055
384.982000	-0.019117
385.158000	-0.081819
385.334000	0.063120
385.509000	0.022158
385.685000	-0.160691
385.861000	-0.019369
386.036000	-0.210119
386.212000	-0.403443
386.388000	-0.105965
386.563000	-0.075108
386.739000	-0.101719
386.915000	-0.360756
387.090000	-0.107568
387.266000	0.193157
387.442000	0.317142
387.618000	0.170919
387.793000	-0.122691
387.969000	-0.427905
388.145000	-0.359607
388.320000	-0.257394
388.496000	-0.171441
388.672000	-0.432628
388.847000	0.057720
389.023000	0.078656
389.199000	-0.163817
389.375000	0.016810
389.550000	-0.180478
389.726000	-0.059298
389.902000	-0.179873
390.077000	-0.013530
390.253000	0.037214
390.429000	-0.121526
390.604000	-0.039210
390.780000	0.123125
390.956000	-0.078935
391.131000	-0.154056
391.307000	0.252589
391.483000	-0.003514
391.659000	-0.210008
391.834000	0.051650
392.010000	-0.083630
392.186000	-0.239120
392.361000	-0.164279
392.537000	-0.277135
392.713000	0.189163
392.888000	0.431813
393.064000	0.115662
393.240000	-0.057933
393.416000	-0.082182
393.591000	-0.107558
393.767000	-0.267014
393.943000	-0.194924
394.118000	0.235832
394.294000	0.362542
394.470000	0.176668
394.645000	0.244027
394.821000	0.469902
394.997000	0.146929
395.172000	0.054507
395.348000	-0.066213
395.524000	-0.228421
395.700000	-0.159109
395.875000	0.049318
396.051000	0.044472
396.227000	-0.162352
396.402000	-0.197116
396.578000	0.015942
396.754000	-0.195546
396.929000	-0.118143
397.105000	0.053968
397.281000	0.106470
397.457000	0.006189
397.632000	-0.083374
397.808000	-0.268780
397.984000	-0.431206
398.159000	-0.322425
398.335000	-0.131632
398.511000	0.342939
398.686000	0.157786
398.862000	-0.144484
399.038000	-0.341267
399.213000	-0.026631
399.389000	-0.233899
399.565000	-0.012671
399.741000	0.277984
399.916000	0.228605
400.092000	0.411174
400.268000	0.080811
400.443000	-0.026943
400.619000	0.326959
400.795000	0.252395
400.970000	0.034111
401.146000	-0.129941
401.322000	0.176157
401.497000	0.652669
401.673000	0.395137
401.849000	-0.031676
402.025000	0.156771
402.200000	0.118784
402.376000	-0.087758
402.552000	0.335991
402.727000	0.137426
402.903000	-0.110926
403.079000	-0.082899
403.254000	0.217036
403.430000	0.192306
403.606000	0.080687
403.782000	0.145800
403.957000	-0.087355
404.133000	-0.288970
404.309000	-0.031370
404.484000	0.197343
404.660000	0.085614
404.841000	-0.026683
405.023000	0.299356
405.204000	0.248878
405.385000	-0.111171
405.566000	-0.134020
405.748000	0.053318
405.929000	0.276454
406.110000	0.217014
406.292000	0.154523
406.473000	0.215378
406.654000	-0.111124
406.835000	0.118220
407.017000	0.192255
407.198000	0.185507
407.379000	0.171224
407.560000	0.075059
407.742000	0.024595
407.923000	0.122724
408.104000	0.001393
408.286000	0.135798
408.467000	0.158578
408.648000	0.043129
408.829000	0.038356
409.011000	0.135571
409.192000	-0.114733
409.373000	0.145194
409.555000	0.261209
409.736000	0.273283
409.917000	0.209541
410.098000	0.281674
410.280000	0.348061
410.461000	0.224494
410.642000	0.297902
410.823000	0.566855
411.005000	0.512783
411.186000	0.307510
411.367000	0.271190
411.549000	0.284704
411.730000	0.380564
411.911000	0.530431
412.092000	0.460640
412.274000	0.375935
412.455000	0.467161
412.636000	0.499273
412.818000	0.343999
412.999000	0.220766
413.180000	0.244625
413.361000	0.326929
413.543000	0.262215
413.724000	0.283974
413.905000	0.319874
414.087000	0.280081
414.268000	0.259226
414.449000	0.299803
414.630000	0.207056
414.812000	0.166469
414.993000	0.558833
415.174000	0.767157
415.355000	0.562552
415.537000	0.360516
415.718000	0.605028
415.899000	0.452751
416.081000	0.367146
416.262000	0.669885
416.443000	0.532195
416.624000	0.618510
416.806000	0.808286
416.987000	0.922329
417.168000	0.820437
417.350000	0.658211
417.531000	0.649901
417.712000	0.719492
417.893000	0.971586
418.075000	1.154342
418.256000	0.962060
418.437000	1.053231
418.618000	1.140768
418.800000	1.225823
418.981000	1.008021
419.162000	1.001532
419.344000	1.232799
419.525000	1.109129
419.706000	1.032071
419.887000	1.286091
420.069000	1.588254
420.250000	1.505471
420.431000	1.398032
420.613000	1.291692
420.794000	1.128725
420.975000	1.616783
421.156000	1.473148
421.338000	1.359818
421.519000	1.501833
421.700000	1.476014
421.882000	1.436837
422.063000	1.601533
422.244000	2.134169
422.425000	1.913999
422.607000	1.581436
422.788000	1.656426
422.969000	1.507280
423.150000	1.509028
423.332000	1.521860
423.513000	1.772332
423.694000	1.941916
423.876000	2.052632
424.057000	2.113421
424.238000	2.225409
424.419000	2.331890
424.601000	2.196831
424.782000	2.298847
424.963000	2.469283
425.145000	2.393970
425.326000	2.508402
425.507000	2.496118
425.688000	2.392279
425.870000	2.371481
426.051000	2.299313
426.232000	2.415305
426.413000	2.581005
426.595000	2.619160
426.776000	2.635168
426.957000	2.849683
427.139000	2.958144
427.320000	3.001483
427.501000	3.113000
427.682000	3.158248
427.864000	3.242786
428.045000	3.468688
428.226000	3.481100
428.408000	3.204354
428.589000	3.450038
428.770000	3.541383
428.951000	3.509548
429.133000	3.469042
429.314000	3.644174
429.495000	3.721777
429.677000	3.812120
429.858000	3.841994
430.039000	4.104288
430.220000	4.294079
430.402000	4.383455
430.583000	4.209085
430.764000	4.329176
430.945000	4.568995
431.127000	4.685289
431.308000	4.693437
431.489000	5.000480
431.671000	5.183446
431.852000	5.114802
432.033000	5.089880
432.214000	5.185887
432.396000	5.413198
432.577000	5.344631
432.758000	5.422540
432.940000	5.658665
433.121000	5.669627
433.302000	5.942417
433.483000	6.238498
433.665000	6.419074
433.846000	6.367171
434.027000	6.385992
434.208000	6.448799
434.390000	6.665888
434.571000	7.215222
434.752000	7.575094
434.934000	7.259714
435.115000	7.361060
435.296000	7.703898
435.477000	7.693731
435.659000	7.514308
435.840000	7.866551
436.026000	7.904824
436.211000	7.998636
436.397000	7.870334
436.582000	8.164715
436.768000	8.655805
436.953000	8.713336
437.139000	8.913926
437.325000	9.571057
437.510000	9.626356
437.696000	9.830949
437.881000	10.061291
438.067000	9.931533
438.252000	10.372085
438.438000	10.541085
438.624000	10.906274
438.809000	11.216998
438.995000	11.574667
439.180000	11.737682
439.366000	11.796917
439.551000	11.971473
439.737000	12.342909
439.923000	12.826568
440.108000	13.161859
440.294000	13.464792
440.479000	13.731501
440.665000	14.001588
440.850000	14.187922
441.036000	14.617307
441.222000	15.050530
441.407000	15.201743
441.593000	15.939198
441.778000	16.421020
441.964000	16.872030
442.149000	16.923953
442.335000	17.174024
442.521000	17.747646
442.706000	18.308049
442.892000	18.597445
443.077000	19.116325
443.263000	19.724630
443.448000	20.008617
443.634000	20.376765
443.820000	21.101828
444.005000	21.503875
444.191000	21.703882
444.376000	22.035314
444.562000	22.964545
444.747000	23.604217
444.933000	23.882321
445.119000	24.319614
445.304000	24.723155
445.490000	25.425134
445.675000	25.985433
445.861000	26.377069
446.046000	26.918038
446.232000	27.560907
446.418000	27.996715
446.603000	28.534653
446.789000	29.089054
446.974000	29.584411
447.160000	29.757374
447.345000	30.045902
447.531000	30.297298
447.717000	31.093640
447.902000	31.661000
448.088000	32.022159
448.273000	32.024049
448.459000	32.173757
448.644000	32.552801
448.830000	33.004188
449.016000	33.043326
449.201000	33.366220
449.387000	33.707974
449.572000	33.695702
449.758000	33.924697
449.943000	34.287378
450.129000	34.091761
450.315000	34.130552
450.500000	34.369881
450.686000	34.484513
450.871000	34.436473
451.057000	34.443798
451.243000	34.587937
451.428000	34.465080
451.614000	34.078523
451.799000	34.072901
451.985000	34.447018
452.170000	33.974190
452.356000	33.444171
452.542000	33.363149
452.727000	33.115582
452.913000	32.829553
453.098000	32.833573
453.284000	32.832031
453.469000	32.419987
453.655000	32.023504
453.841000	31.585912
454.026000	30.763805
454.212000	30.414509
454.397000	30.237603
454.583000	29.984614
454.768000	29.467765
454.954000	29.203287
455.140000	28.813821
455.325000	28.242980
455.511000	27.887167
455.696000	27.665048
455.882000	27.339041
456.067000	27.315929
456.253000	26.738685
456.439000	26.286019
456.624000	25.856909
456.810000	25.411734
456.995000	25.273167
457.181000	24.732303
457.366000	24.542123
457.552000	24.256322
457.738000	23.994617
457.923000	23.808930
458.109000	23.816904
458.294000	23.314826
458.480000	23.143491
458.665000	22.704175
458.851000	22.361910
459.037000	22.057732
459.222000	22.126460
