Wavelength	Irradiance
(nm)	(mW/cm2/nm)

294.396000	0.000000
294.577000	0.000000
294.757000	0.000000
294.938000	0.000000
295.118000	0.000000
295.299000	0.000000
295.479000	0.000000
295.660000	-0.000000
295.840000	-0.000000
296.021000	0.000000
296.202000	0.000000
296.382000	-0.000000
296.563000	-0.000000
296.743000	-0.000000
296.924000	0.000000
297.104000	0.000000
297.285000	-0.000000
297.465000	-0.000000
297.646000	-0.000000
297.826000	0.000000
298.007000	0.000000
298.187000	0.000000
298.368000	-0.000000
298.548000	0.000000
298.729000	0.000000
298.909000	0.000000
299.090000	-0.000000
299.270000	-0.000000
299.451000	-0.000000
299.631000	-0.000000
299.812000	0.000000
299.992000	0.000000
300.173000	0.000000
300.353000	-0.000000
300.534000	0.000000
300.714000	0.000000
300.895000	0.000000
301.075000	0.000000
301.256000	0.000000
301.436000	0.000000
301.617000	0.000000
301.797000	-0.000000
301.978000	0.000000
302.159000	0.000000
302.339000	0.000000
302.520000	0.000000
302.700000	-0.000000
302.881000	0.000000
303.061000	0.000000
303.242000	0.000000
303.422000	0.000000
303.603000	0.000000
303.783000	-0.000000
303.964000	0.000000
304.144000	0.000000
304.325000	0.000000
304.505000	0.000000
304.686000	0.000000
304.866000	0.000000
305.047000	-0.000000
305.227000	-0.000000
305.408000	-0.000000
305.588000	-0.000000
305.769000	-0.000000
305.949000	0.000000
306.130000	-0.000000
306.310000	-0.000000
306.491000	0.000000
306.671000	0.000000
306.852000	0.000000
307.032000	0.000000
307.213000	0.000000
307.393000	-0.000000
307.574000	0.000000
307.755000	0.000000
307.935000	0.000000
308.116000	0.000000
308.296000	-0.000000
308.477000	0.000000
308.657000	0.000000
308.838000	0.000000
309.018000	0.000000
309.199000	-0.000000
309.379000	0.000000
309.560000	0.000000
309.740000	0.000000
309.921000	0.000000
310.101000	0.000000
310.282000	-0.000000
310.462000	-0.000000
310.643000	-0.000000
310.823000	-0.000000
311.004000	0.000000
311.184000	-0.000000
311.365000	0.000000
311.545000	0.000000
311.726000	0.000000
311.906000	0.000000
312.087000	0.000000
312.267000	-0.000000
312.448000	-0.000000
312.628000	-0.000000
312.809000	0.000000
312.989000	-0.000000
313.170000	-0.000000
313.344000	0.000000
313.518000	-0.000000
313.691000	-0.000000
313.865000	-0.000000
314.039000	-0.000000
314.213000	-0.000000
314.387000	-0.000000
314.560000	-0.000000
314.734000	-0.000000
314.908000	0.000000
315.082000	-0.000000
315.255000	0.000000
315.429000	0.000000
315.603000	0.000000
315.777000	-0.000000
315.951000	0.000000
316.124000	-0.000000
316.298000	-0.000000
316.472000	-0.000000
316.646000	-0.000000
316.820000	-0.000000
316.993000	0.000000
317.167000	-0.000000
317.341000	-0.000000
317.515000	-0.000000
317.688000	0.000000
317.862000	-0.000000
318.036000	-0.000000
318.210000	-0.000000
318.384000	-0.000000
318.557000	-0.000000
318.731000	-0.000000
318.905000	0.000000
319.079000	0.000000
319.253000	0.000000
319.426000	0.000000
319.600000	0.000000
319.774000	-0.000000
319.948000	0.000000
320.122000	0.000000
320.295000	0.000000
320.469000	-0.000000
320.643000	-0.000000
320.817000	-0.000000
320.990000	-0.000000
321.164000	-0.000000
321.338000	-0.000000
321.512000	-0.000000
321.686000	-0.000000
321.859000	0.000000
322.033000	0.000000
322.207000	0.000000
322.381000	0.000000
322.555000	0.000000
322.728000	0.000000
322.902000	-0.000000
323.076000	-0.000000
323.250000	-0.000000
323.423000	-0.000000
323.597000	-0.000000
323.771000	-0.000000
323.945000	-0.000000
324.119000	-0.000000
324.292000	0.000000
324.466000	0.000000
324.640000	0.000000
324.814000	0.000000
324.988000	-0.000000
325.161000	-0.000000
325.335000	-0.000000
325.509000	-0.000000
325.683000	0.000000
325.856000	-0.000000
326.030000	-0.000000
326.204000	-0.000000
326.378000	0.000000
326.552000	-0.000000
326.725000	-0.000000
326.899000	-0.000000
327.073000	-0.000000
327.247000	0.000000
327.421000	0.000000
327.594000	0.000000
327.768000	-0.000000
327.942000	0.000000
328.116000	0.000000
328.289000	0.000000
328.463000	0.000000
328.637000	0.000000
328.811000	0.000000
328.985000	0.000000
329.158000	0.000000
329.332000	-0.000000
329.506000	0.000000
329.680000	0.000000
329.854000	0.000000
330.027000	0.000000
330.201000	0.000000
330.375000	0.000000
330.549000	0.000000
330.723000	0.000000
330.896000	0.000000
331.070000	-0.000000
331.244000	0.000000
331.418000	0.000000
331.591000	0.000000
331.765000	0.000000
331.939000	-0.000000
332.113000	0.000000
332.287000	0.000000
332.460000	0.000000
332.634000	0.000000
332.808000	-0.000000
332.982000	-0.000000
333.156000	0.000000
333.329000	0.000000
333.503000	0.000000
333.677000	-0.000000
333.851000	-0.000000
334.024000	0.000000
334.198000	0.000000
334.372000	-0.000000
334.546000	-0.000000
334.720000	0.000000
334.893000	-0.000000
335.067000	0.000000
335.241000	0.000000
335.415000	0.000000
335.589000	-0.000000
335.762000	-0.000000
335.936000	-0.000000
336.110000	-0.000000
336.284000	-0.000000
336.458000	0.000000
336.631000	0.000000
336.805000	-0.000000
336.979000	-0.000000
337.153000	-0.000000
337.326000	-0.000000
337.500000	0.000000
337.674000	0.000000
337.848000	0.000000
338.022000	0.000000
338.195000	0.000000
338.369000	-0.000000
338.543000	-0.000000
338.717000	0.000000
338.891000	0.000000
339.064000	0.000000
339.238000	0.000000
339.412000	0.000000
339.586000	0.000000
339.759000	-0.000000
339.933000	-0.000000
340.107000	0.000000
340.281000	0.000000
340.455000	-0.000000
340.628000	-0.000000
340.802000	0.000000
340.976000	0.000000
341.150000	0.000000
341.324000	-0.000000
341.497000	-0.000000
341.671000	-0.000000
341.845000	-0.000000
342.019000	-0.000000
342.192000	0.000000
342.366000	0.000000
342.540000	0.000000
342.714000	-0.000000
342.888000	-0.000000
343.061000	0.000000
343.235000	0.000000
343.409000	-0.000000
343.583000	-0.000000
343.757000	0.000000
343.930000	-0.000000
344.104000	-0.000000
344.278000	0.000000
344.452000	0.000000
344.626000	-0.000000
344.799000	-0.000000
344.973000	-0.000000
345.147000	-0.000000
345.321000	-0.000000
345.494000	0.000000
345.668000	0.000000
345.842000	0.000000
346.016000	-0.000000
346.190000	0.000000
346.363000	0.000000
346.537000	0.000000
346.711000	0.000000
346.885000	-0.000000
347.059000	-0.000000
347.232000	0.000000
347.406000	0.000000
347.580000	-0.000000
347.754000	0.000000
347.927000	0.000000
348.101000	0.000000
348.275000	-0.000000
348.449000	-0.000000
348.623000	-0.000000
348.796000	0.000000
348.970000	0.000000
349.144000	0.000000
349.318000	0.000000
349.492000	0.000000
349.665000	0.000000
349.839000	-0.000000
350.013000	-0.000000
350.187000	-0.000000
350.361000	-0.000000
350.534000	0.000000
350.708000	0.000000
350.882000	0.000000
351.056000	0.000000
351.229000	0.000000
351.403000	0.000000
351.577000	-0.000000
351.751000	-0.000000
351.925000	-0.000000
352.098000	-0.000000
352.272000	0.000000
352.446000	-0.000000
352.620000	-0.000000
352.794000	0.000000
352.967000	0.000000
353.141000	0.000000
353.315000	0.000000
353.489000	-0.000000
353.662000	-0.000000
353.836000	0.000000
354.010000	0.000000
354.184000	0.000000
354.358000	-0.000000
354.531000	-0.000000
354.705000	-0.000000
354.879000	0.000000
355.053000	0.000000
355.227000	0.000000
355.400000	-0.000000
355.574000	0.000000
355.748000	0.000000
355.922000	0.000000
356.095000	-0.000000
356.269000	0.000000
356.443000	-0.000000
356.617000	-0.000000
356.791000	-0.000000
356.964000	-0.000000
357.138000	0.000000
357.312000	0.000000
357.486000	0.000000
357.660000	0.000000
357.833000	0.000000
358.007000	-0.000000
358.181000	-0.000000
358.355000	-0.000000
358.529000	-0.000000
358.702000	-0.000000
358.876000	-0.000000
359.050000	-0.000000
359.224000	-0.000000
359.397000	0.000000
359.571000	0.000000
359.745000	0.000000
359.919000	0.000000
360.093000	0.108261
360.266000	0.192216
360.440000	0.256005
360.614000	0.331197
360.788000	0.138802
360.962000	-0.039706
361.135000	0.132756
361.309000	0.037554
361.483000	-0.125680
361.657000	-0.088494
361.830000	-0.052650
362.004000	0.137960
362.178000	-0.145061
362.352000	-0.028971
362.526000	0.127580
362.699000	-0.004397
362.873000	-0.316719
363.047000	-0.221123
363.221000	-0.101009
363.395000	0.020962
363.568000	-0.004470
363.742000	0.008346
363.916000	0.074242
364.090000	-0.110610
364.263000	-0.102160
364.437000	-0.151083
364.611000	0.095451
364.785000	0.124190
364.959000	-0.057677
365.132000	-0.096629
365.306000	-0.058663
365.480000	0.055487
365.656000	-0.124789
365.831000	-0.087973
366.007000	0.002113
366.183000	0.008992
366.358000	-0.138395
366.534000	-0.108339
366.710000	-0.279784
366.886000	-0.172074
367.061000	0.161544
367.237000	0.236084
367.413000	0.064114
367.588000	-0.195149
367.764000	-0.039830
367.940000	-0.116064
368.115000	-0.137584
368.291000	-0.165764
368.467000	-0.108687
368.643000	0.211658
368.818000	0.009178
368.994000	0.002155
369.170000	-0.012105
369.345000	-0.053791
369.521000	-0.019533
369.697000	0.111098
369.872000	-0.026528
370.048000	-0.192300
370.224000	-0.126626
370.399000	-0.296467
370.575000	-0.173539
370.751000	-0.289191
370.927000	-0.220078
371.102000	-0.326647
371.278000	-0.230492
371.454000	0.059376
371.629000	0.319962
371.805000	0.233064
371.981000	0.403760
372.156000	0.509686
372.332000	0.257615
372.508000	0.262123
372.683000	0.246209
372.859000	0.074461
373.035000	0.082567
373.211000	0.559416
373.386000	0.353290
373.562000	-0.041539
373.738000	-0.291860
373.913000	-0.498100
374.089000	-0.201382
374.265000	0.264981
374.440000	0.090583
374.616000	0.222661
374.792000	0.123678
374.968000	0.367275
375.143000	0.254407
375.319000	-0.085446
375.495000	-0.249975
375.670000	-0.076841
375.846000	0.161512
376.022000	-0.012441
376.197000	0.060243
376.373000	-0.204844
376.549000	-0.111673
376.724000	-0.277704
376.900000	-0.296059
377.076000	0.101868
377.252000	0.323326
377.427000	0.479972
377.603000	0.137297
377.779000	0.002135
377.954000	-0.180112
378.130000	-0.039852
378.306000	0.030356
378.481000	-0.011952
378.657000	-0.011891
378.833000	0.009078
379.009000	0.193314
379.184000	0.227684
379.360000	0.148830
379.536000	0.192335
379.711000	0.059447
379.887000	-0.061396
380.063000	-0.130566
380.238000	-0.096328
380.414000	0.162895
380.590000	-0.167297
380.765000	-0.166780
380.941000	0.127341
381.117000	0.161100
381.293000	0.112437
381.468000	-0.052523
381.644000	0.085152
381.820000	0.251521
381.995000	0.170023
382.171000	0.430932
382.347000	0.360197
382.522000	-0.074707
382.698000	0.293851
382.874000	0.251792
383.050000	-0.130572
383.225000	0.169400
383.401000	0.295850
383.577000	0.093682
383.752000	-0.004836
383.928000	-0.011717
384.104000	0.214072
384.279000	0.171819
384.455000	0.132610
384.631000	0.029588
384.806000	-0.080155
384.982000	0.139848
385.158000	0.002085
385.334000	0.097845
385.509000	-0.004810
385.685000	-0.360812
385.861000	0.043972
386.036000	-0.004818
386.212000	-0.223508
386.388000	-0.052556
386.563000	-0.059269
386.739000	-0.232009
386.915000	-0.446000
387.090000	0.009007
387.266000	0.250638
387.442000	0.257301
387.618000	0.268954
387.793000	-0.004832
387.969000	-0.218695
388.145000	-0.156156
388.320000	-0.058891
388.496000	0.002035
388.672000	-0.345285
388.847000	0.111014
389.023000	0.152856
389.199000	-0.239093
389.375000	0.002038
389.550000	0.015503
389.726000	0.157453
389.902000	-0.051728
390.077000	0.122273
390.253000	0.015633
390.429000	-0.025297
390.604000	0.029195
390.780000	0.170923
390.956000	0.109269
391.131000	0.008698
391.307000	0.370263
391.483000	0.149253
391.659000	-0.038275
391.834000	0.115669
392.010000	0.015357
392.186000	-0.051467
392.361000	0.008708
392.537000	-0.097520
392.713000	0.298314
392.888000	0.582346
393.064000	0.293209
393.240000	-0.044233
393.416000	-0.162067
393.591000	-0.235934
393.767000	-0.296351
393.943000	-0.168247
394.118000	0.301423
394.294000	0.502907
394.470000	0.365340
394.645000	0.422398
394.821000	0.567982
394.997000	0.105388
395.172000	0.066244
395.348000	0.040598
395.524000	-0.356735
395.700000	-0.186195
395.875000	0.078526
396.051000	-0.023591
396.227000	-0.004496
396.402000	0.034225
396.578000	0.124312
396.754000	-0.074951
396.929000	-0.029974
397.105000	0.307572
397.281000	0.256547
397.457000	0.109810
397.632000	0.240544
397.808000	0.033499
397.984000	-0.150233
398.159000	-0.137797
398.335000	0.058925
398.511000	0.539469
398.686000	0.330418
398.862000	0.039533
399.038000	-0.085747
399.213000	0.145146
399.389000	-0.148716
399.565000	0.189597
399.741000	0.445649
399.916000	0.260632
400.092000	0.403796
400.268000	0.170030
400.443000	0.071218
400.619000	0.404491
400.795000	0.273389
400.970000	0.120244
401.146000	0.151988
401.322000	0.430080
401.497000	0.725502
401.673000	0.305484
401.849000	0.020802
402.025000	0.309461
402.200000	0.333658
402.376000	0.114508
402.552000	0.529668
402.727000	0.352085
402.903000	-0.066774
403.079000	0.014363
403.254000	0.358133
403.430000	0.337117
403.606000	0.275487
403.782000	0.374516
403.957000	0.170039
404.133000	-0.048084
404.309000	0.045572
404.484000	0.244463
404.660000	0.282572
404.841000	0.245295
405.023000	0.442594
405.204000	0.362967
405.385000	0.033148
405.566000	0.014320
405.748000	0.152875
405.929000	0.412863
406.110000	0.520584
406.292000	0.385456
406.473000	0.305778
406.654000	0.033134
406.835000	0.188778
407.017000	0.262547
407.198000	0.419194
407.379000	0.405797
407.560000	0.370228
407.742000	0.286477
407.923000	0.325397
408.104000	0.249545
408.286000	0.292298
408.467000	0.328560
408.648000	0.199724
408.829000	0.186698
409.011000	0.365842
409.192000	0.181466
409.373000	0.403884
409.555000	0.552421
409.736000	0.487271
409.917000	0.445910
410.098000	0.369438
410.280000	0.476246
410.461000	0.548257
410.642000	0.677008
410.823000	0.901738
411.005000	0.799387
411.186000	0.641522
411.367000	0.422562
411.549000	0.446630
411.730000	0.708437
411.911000	0.804541
412.092000	0.735448
412.274000	0.657698
412.455000	0.779657
412.636000	0.792439
412.818000	0.620972
412.999000	0.658567
413.180000	0.710598
413.361000	0.719274
413.543000	0.721428
413.724000	0.611913
413.905000	0.635859
414.087000	0.649177
414.268000	0.707276
414.449000	0.857089
414.630000	0.866384
414.812000	0.632552
414.993000	1.004691
415.174000	1.247165
415.355000	1.165785
415.537000	0.935951
415.718000	1.244680
415.899000	1.199664
416.081000	1.065444
416.262000	1.420995
416.443000	1.277035
416.624000	1.244900
416.806000	1.264838
416.987000	1.400165
417.168000	1.426822
417.350000	1.397294
417.531000	1.354070
417.712000	1.423604
417.893000	1.753756
418.075000	1.845445
418.256000	1.537789
418.437000	1.683656
418.618000	1.921141
418.800000	2.097606
418.981000	1.856752
419.162000	1.861971
419.344000	2.047031
419.525000	2.046508
419.706000	2.089368
419.887000	2.270372
420.069000	2.476109
420.250000	2.348298
420.431000	2.348360
420.613000	2.400036
420.794000	2.334932
420.975000	2.632459
421.156000	2.510928
421.338000	2.543387
421.519000	2.554367
421.700000	2.585007
421.882000	2.642200
422.063000	2.831258
422.244000	3.240378
422.425000	3.109153
422.607000	2.857294
422.788000	2.913369
422.969000	2.876009
423.150000	2.913807
423.332000	3.008497
423.513000	3.161729
423.694000	3.288075
423.876000	3.381753
424.057000	3.485942
424.238000	3.776504
424.419000	3.897644
424.601000	3.781232
424.782000	3.899021
424.963000	4.015976
425.145000	4.038465
425.326000	4.175940
425.507000	4.381626
425.688000	4.369372
425.870000	4.259681
426.051000	4.184637
426.232000	4.333464
426.413000	4.503232
426.595000	4.537064
426.776000	4.563665
426.957000	4.715902
427.139000	4.896812
427.320000	4.947282
427.501000	5.145948
427.682000	5.172623
427.864000	5.250267
428.045000	5.721553
428.226000	5.811535
428.408000	5.597673
428.589000	5.752512
428.770000	6.003923
428.951000	6.085570
429.133000	6.015924
429.314000	6.258911
429.495000	6.295085
429.677000	6.328813
429.858000	6.530202
430.039000	6.847211
430.220000	7.043211
430.402000	7.186817
430.583000	7.123485
430.764000	7.277589
430.945000	7.588854
431.127000	7.835334
431.308000	7.754215
431.489000	8.069695
431.671000	8.365004
431.852000	8.377013
432.033000	8.508194
432.214000	8.751528
432.396000	8.931375
432.577000	8.917182
432.758000	8.935175
432.940000	9.191599
433.121000	9.441888
433.302000	9.714863
433.483000	9.920531
433.665000	10.269055
433.846000	10.373880
434.027000	10.543685
434.208000	10.663845
434.390000	10.804036
434.571000	11.391556
434.752000	12.014103
434.934000	11.881922
435.115000	12.011457
435.296000	12.462323
435.477000	12.337284
435.659000	12.393500
435.840000	12.947246
436.026000	13.084017
436.211000	13.064206
436.397000	13.101842
436.582000	13.614256
436.768000	14.087259
436.953000	14.356107
437.139000	14.633861
437.325000	15.276664
437.510000	15.555114
437.696000	15.858374
437.881000	16.236391
438.067000	16.276979
438.252000	16.652764
438.438000	17.036405
438.624000	17.368493
438.809000	17.712716
438.995000	18.159811
439.180000	18.628415
439.366000	19.143670
439.551000	19.313696
439.737000	19.628047
439.923000	20.403856
440.108000	20.878223
440.294000	21.256169
440.479000	21.993149
440.665000	22.428263
440.850000	22.510845
441.036000	22.847627
441.222000	23.429049
441.407000	24.164576
441.593000	24.970751
441.778000	25.496253
441.964000	26.195893
442.149000	26.359445
442.335000	26.853568
442.521000	27.788471
442.706000	28.401434
442.892000	28.895963
443.077000	29.652692
443.263000	30.120406
443.448000	30.598506
443.634000	31.498157
443.820000	32.381880
444.005000	33.000856
444.191000	33.614890
444.376000	34.180566
444.562000	34.665810
444.747000	35.580013
444.933000	36.149396
445.119000	36.622225
445.304000	36.987941
445.490000	37.955451
445.675000	38.755475
445.861000	39.383577
446.046000	39.960988
446.232000	40.618276
446.418000	41.279633
446.603000	41.707889
446.789000	42.323866
446.974000	43.119648
447.160000	43.257580
447.345000	43.499976
447.531000	43.871653
447.717000	44.870281
447.902000	45.621046
448.088000	46.028097
448.273000	46.279856
448.459000	46.228371
448.644000	46.538697
448.830000	46.969489
449.016000	46.984654
449.201000	47.337106
449.387000	47.734963
449.572000	47.715169
449.758000	47.664304
449.943000	47.761975
450.129000	47.723728
450.315000	47.727085
450.500000	47.479231
450.686000	47.757934
450.871000	47.793948
451.057000	47.383190
451.243000	47.107827
451.428000	47.333275
451.614000	47.182011
451.799000	46.576175
451.985000	46.452989
452.170000	45.993172
452.356000	45.388579
452.542000	45.188565
452.727000	44.919649
452.913000	44.578614
453.098000	44.237156
453.284000	43.883439
453.469000	43.348837
453.655000	43.127362
453.841000	42.260690
454.026000	41.513113
454.212000	41.089493
454.397000	40.670319
454.583000	40.174881
454.768000	39.421526
454.954000	38.802504
455.140000	38.394324
455.325000	37.604399
455.511000	37.081394
455.696000	36.654718
455.882000	36.046941
456.067000	35.962855
456.253000	35.405484
456.439000	34.937058
456.624000	34.471070
456.810000	33.829560
456.995000	33.539088
457.181000	33.086560
457.366000	32.603705
457.552000	31.976361
457.738000	31.774775
457.923000	31.726246
458.109000	31.703479
458.294000	31.053127
458.480000	30.729360
458.665000	30.238984
458.851000	29.891744
459.037000	29.367920
459.222000	29.002656
459.408000	28.871473
459.593000	28.614920
459.779000	28.485922
