Wavelength	Irradiance
(nm)	(mW/cm2/nm)

294.396000	0.000000
294.577000	0.000000
294.757000	0.000000
294.938000	0.000000
295.118000	0.000000
295.299000	0.000000
295.479000	-0.000000
295.660000	-0.000000
295.840000	-0.000000
296.021000	0.000000
296.202000	-0.000000
296.382000	-0.000000
296.563000	-0.000000
296.743000	-0.000000
296.924000	0.000000
297.104000	-0.000000
297.285000	-0.000000
297.465000	-0.000000
297.646000	-0.000000
297.826000	0.000000
298.007000	0.000000
298.187000	0.000000
298.368000	-0.000000
298.548000	0.000000
298.729000	0.000000
298.909000	-0.000000
299.090000	-0.000000
299.270000	-0.000000
299.451000	-0.000000
299.631000	-0.000000
299.812000	0.000000
299.992000	0.000000
300.173000	0.000000
300.353000	-0.000000
300.534000	0.000000
300.714000	0.000000
300.895000	0.000000
301.075000	-0.000000
301.256000	0.000000
301.436000	0.000000
301.617000	0.000000
301.797000	-0.000000
301.978000	0.000000
302.159000	0.000000
302.339000	0.000000
302.520000	0.000000
302.700000	-0.000000
302.881000	0.000000
303.061000	0.000000
303.242000	0.000000
303.422000	0.000000
303.603000	0.000000
303.783000	-0.000000
303.964000	0.000000
304.144000	0.000000
304.325000	-0.000000
304.505000	0.000000
304.686000	0.000000
304.866000	0.000000
305.047000	0.000000
305.227000	-0.000000
305.408000	-0.000000
305.588000	-0.000000
305.769000	-0.000000
305.949000	-0.000000
306.130000	-0.000000
306.310000	-0.000000
306.491000	-0.000000
306.671000	0.000000
306.852000	-0.000000
307.032000	-0.000000
307.213000	0.000000
307.393000	-0.000000
307.574000	0.000000
307.755000	0.000000
307.935000	0.000000
308.116000	0.000000
308.296000	-0.000000
308.477000	0.000000
308.657000	0.000000
308.838000	0.000000
309.018000	0.000000
309.199000	-0.000000
309.379000	-0.000000
309.560000	0.000000
309.740000	-0.000000
309.921000	0.000000
310.101000	0.000000
310.282000	0.000000
310.462000	-0.000000
310.643000	-0.000000
310.823000	-0.000000
311.004000	-0.000000
311.184000	-0.000000
311.365000	0.000000
311.545000	0.000000
311.726000	0.000000
311.906000	0.000000
312.087000	0.000000
312.267000	-0.000000
312.448000	-0.000000
312.628000	-0.000000
312.809000	-0.000000
312.989000	-0.000000
313.170000	-0.000000
313.344000	-0.000000
313.518000	-0.000000
313.691000	-0.000000
313.865000	-0.000000
314.039000	-0.000000
314.213000	-0.000000
314.387000	-0.000000
314.560000	-0.000000
314.734000	-0.000000
314.908000	-0.000000
315.082000	-0.000000
315.255000	0.000000
315.429000	0.000000
315.603000	0.000000
315.777000	-0.000000
315.951000	0.000000
316.124000	-0.000000
316.298000	-0.000000
316.472000	-0.000000
316.646000	-0.000000
316.820000	-0.000000
316.993000	0.000000
317.167000	-0.000000
317.341000	-0.000000
317.515000	0.000000
317.688000	0.000000
317.862000	-0.000000
318.036000	-0.000000
318.210000	-0.000000
318.384000	-0.000000
318.557000	-0.000000
318.731000	-0.000000
318.905000	0.000000
319.079000	0.000000
319.253000	0.000000
319.426000	0.000000
319.600000	0.000000
319.774000	-0.000000
319.948000	-0.000000
320.122000	0.000000
320.295000	0.000000
320.469000	-0.000000
320.643000	-0.000000
320.817000	-0.000000
320.990000	-0.000000
321.164000	-0.000000
321.338000	-0.000000
321.512000	-0.000000
321.686000	-0.000000
321.859000	-0.000000
322.033000	0.000000
322.207000	0.000000
322.381000	0.000000
322.555000	0.000000
322.728000	0.000000
322.902000	-0.000000
323.076000	-0.000000
323.250000	-0.000000
323.423000	-0.000000
323.597000	-0.000000
323.771000	-0.000000
323.945000	-0.000000
324.119000	-0.000000
324.292000	0.000000
324.466000	0.000000
324.640000	0.000000
324.814000	0.000000
324.988000	-0.000000
325.161000	-0.000000
325.335000	-0.000000
325.509000	-0.000000
325.683000	0.000000
325.856000	-0.000000
326.030000	-0.000000
326.204000	-0.000000
326.378000	0.000000
326.552000	-0.000000
326.725000	-0.000000
326.899000	-0.000000
327.073000	-0.000000
327.247000	-0.000000
327.421000	0.000000
327.594000	0.000000
327.768000	-0.000000
327.942000	0.000000
328.116000	0.000000
328.289000	0.000000
328.463000	0.000000
328.637000	0.000000
328.811000	-0.000000
328.985000	0.000000
329.158000	0.000000
329.332000	-0.000000
329.506000	0.000000
329.680000	0.000000
329.854000	0.000000
330.027000	0.000000
330.201000	0.000000
330.375000	0.000000
330.549000	0.000000
330.723000	0.000000
330.896000	-0.000000
331.070000	-0.000000
331.244000	-0.000000
331.418000	-0.000000
331.591000	0.000000
331.765000	-0.000000
331.939000	-0.000000
332.113000	0.000000
332.287000	0.000000
332.460000	0.000000
332.634000	0.000000
332.808000	-0.000000
332.982000	-0.000000
333.156000	-0.000000
333.329000	0.000000
333.503000	-0.000000
333.677000	-0.000000
333.851000	-0.000000
334.024000	-0.000000
334.198000	-0.000000
334.372000	-0.000000
334.546000	-0.000000
334.720000	-0.000000
334.893000	-0.000000
335.067000	0.000000
335.241000	-0.000000
335.415000	-0.000000
335.589000	-0.000000
335.762000	-0.000000
335.936000	-0.000000
336.110000	-0.000000
336.284000	-0.000000
336.458000	0.000000
336.631000	0.000000
336.805000	-0.000000
336.979000	-0.000000
337.153000	-0.000000
337.326000	-0.000000
337.500000	0.000000
337.674000	0.000000
337.848000	-0.000000
338.022000	0.000000
338.195000	-0.000000
338.369000	-0.000000
338.543000	-0.000000
338.717000	0.000000
338.891000	0.000000
339.064000	0.000000
339.238000	-0.000000
339.412000	-0.000000
339.586000	-0.000000
339.759000	-0.000000
339.933000	-0.000000
340.107000	0.000000
340.281000	0.000000
340.455000	-0.000000
340.628000	-0.000000
340.802000	-0.000000
340.976000	0.000000
341.150000	-0.000000
341.324000	-0.000000
341.497000	-0.000000
341.671000	-0.000000
341.845000	-0.000000
342.019000	-0.000000
342.192000	-0.000000
342.366000	-0.000000
342.540000	-0.000000
342.714000	-0.000000
342.888000	-0.000000
343.061000	0.000000
343.235000	0.000000
343.409000	-0.000000
343.583000	-0.000000
343.757000	-0.000000
343.930000	-0.000000
344.104000	-0.000000
344.278000	0.000000
344.452000	0.000000
344.626000	-0.000000
344.799000	-0.000000
344.973000	-0.000000
345.147000	-0.000000
345.321000	-0.000000
345.494000	-0.000000
345.668000	0.000000
345.842000	0.000000
346.016000	-0.000000
346.190000	0.000000
346.363000	0.000000
346.537000	0.000000
346.711000	0.000000
346.885000	-0.000000
347.059000	-0.000000
347.232000	0.000000
347.406000	0.000000
347.580000	-0.000000
347.754000	-0.000000
347.927000	0.000000
348.101000	0.000000
348.275000	-0.000000
348.449000	-0.000000
348.623000	-0.000000
348.796000	0.000000
348.970000	0.000000
349.144000	0.000000
349.318000	-0.000000
349.492000	-0.000000
349.665000	-0.000000
349.839000	-0.000000
350.013000	-0.000000
350.187000	-0.000000
350.361000	-0.000000
350.534000	-0.000000
350.708000	-0.000000
350.882000	0.000000
351.056000	0.000000
351.229000	0.000000
351.403000	-0.000000
351.577000	-0.000000
351.751000	-0.000000
351.925000	-0.000000
352.098000	-0.000000
352.272000	0.000000
352.446000	-0.000000
352.620000	-0.000000
352.794000	-0.000000
352.967000	-0.000000
353.141000	0.000000
353.315000	0.000000
353.489000	-0.000000
353.662000	-0.000000
353.836000	-0.000000
354.010000	-0.000000
354.184000	0.000000
354.358000	-0.000000
354.531000	-0.000000
354.705000	-0.000000
354.879000	-0.000000
355.053000	-0.000000
355.227000	0.000000
355.400000	-0.000000
355.574000	0.000000
355.748000	0.000000
355.922000	-0.000000
356.095000	-0.000000
356.269000	0.000000
356.443000	-0.000000
356.617000	-0.000000
356.791000	-0.000000
356.964000	-0.000000
357.138000	-0.000000
357.312000	-0.000000
357.486000	-0.000000
357.660000	0.000000
357.833000	0.000000
358.007000	-0.000000
358.181000	-0.000000
358.355000	-0.000000
358.529000	-0.000000
358.702000	-0.000000
358.876000	-0.000000
359.050000	-0.000000
359.224000	-0.000000
359.397000	0.000000
359.571000	-0.000000
359.745000	-0.000000
359.919000	0.000000
360.093000	0.103824
360.266000	0.175982
360.440000	0.242230
360.614000	0.257502
360.788000	0.124654
360.962000	-0.102671
361.135000	0.057597
361.309000	-0.076450
361.483000	-0.231551
361.657000	-0.199112
361.830000	-0.108249
362.004000	0.066815
362.178000	-0.240315
362.352000	-0.158802
362.526000	0.000707
362.699000	-0.034628
362.873000	-0.382312
363.047000	-0.318303
363.221000	-0.245364
363.395000	-0.099332
363.568000	-0.153745
363.742000	-0.150951
363.916000	-0.106435
364.090000	-0.163182
364.263000	-0.120054
364.437000	-0.253829
364.611000	0.060825
364.785000	0.038937
364.959000	-0.163336
365.132000	-0.161952
365.306000	-0.177507
365.480000	-0.055655
365.656000	-0.179426
365.831000	-0.170664
366.007000	-0.110159
366.183000	-0.045910
366.358000	-0.200743
366.534000	-0.100145
366.710000	-0.235101
366.886000	-0.136370
367.061000	0.008580
367.237000	0.144025
367.413000	0.078333
367.588000	-0.149796
367.764000	-0.124991
367.940000	-0.218141
368.115000	-0.183853
368.291000	-0.207730
368.467000	-0.108255
368.643000	0.232614
368.818000	-0.102456
368.994000	-0.233544
369.170000	-0.111350
369.345000	-0.164254
369.521000	-0.231137
369.697000	-0.121718
369.872000	-0.144381
370.048000	-0.209856
370.224000	-0.111871
370.399000	-0.359749
370.575000	-0.283373
370.751000	-0.335174
370.927000	-0.374299
371.102000	-0.344459
371.278000	-0.322289
371.454000	-0.224536
371.629000	0.094255
371.805000	0.110399
371.981000	0.226704
372.156000	0.245509
372.332000	0.112573
372.508000	0.025183
372.683000	0.012921
372.859000	-0.149644
373.035000	-0.027949
373.211000	0.425611
373.386000	0.107797
373.562000	-0.413200
373.738000	-0.422731
373.913000	-0.472270
374.089000	-0.330427
374.265000	0.037776
374.440000	0.083679
374.616000	0.157902
374.792000	-0.135921
374.968000	0.214244
375.143000	0.045404
375.319000	-0.159390
375.495000	-0.238269
375.670000	-0.116339
375.846000	-0.031777
376.022000	-0.172075
376.197000	-0.101252
376.373000	-0.300308
376.549000	-0.267269
376.724000	-0.353338
376.900000	-0.246805
377.076000	-0.079340
377.252000	0.134341
377.427000	0.253777
377.603000	-0.091235
377.779000	-0.039229
377.954000	-0.231798
378.130000	-0.070004
378.306000	-0.023032
378.481000	-0.042710
378.657000	-0.105445
378.833000	-0.187753
379.009000	-0.023102
379.184000	0.052339
379.360000	-0.003144
379.536000	0.044385
379.711000	-0.087828
379.887000	-0.245321
380.063000	-0.215225
380.238000	-0.248380
380.414000	0.016517
380.590000	-0.197739
380.765000	-0.177335
380.941000	0.000783
381.117000	0.055227
381.293000	-0.030265
381.468000	-0.198751
381.644000	-0.131622
381.820000	-0.053786
381.995000	0.114923
382.171000	0.328998
382.347000	0.261459
382.522000	-0.152382
382.698000	0.160993
382.874000	0.215376
383.050000	-0.219161
383.225000	0.216456
383.401000	0.339126
383.577000	0.024565
383.752000	-0.092480
383.928000	-0.022486
384.104000	0.000795
384.279000	-0.046932
384.455000	0.008503
384.631000	-0.095990
384.806000	-0.342199
384.982000	-0.018601
385.158000	-0.046121
385.334000	0.008467
385.509000	-0.084253
385.685000	-0.340748
385.861000	-0.120923
386.036000	-0.247031
386.212000	-0.437533
386.388000	-0.183520
386.563000	-0.121859
386.739000	-0.216089
386.915000	-0.448188
387.090000	-0.190193
387.266000	0.000777
387.442000	0.210307
387.618000	0.158601
387.793000	-0.162294
387.969000	-0.367884
388.145000	-0.332004
388.320000	-0.246733
388.496000	-0.170932
388.672000	-0.382316
388.847000	0.008428
389.023000	-0.003085
389.199000	-0.309288
389.375000	-0.087108
389.550000	-0.188819
389.726000	-0.063860
389.902000	-0.267542
390.077000	-0.021799
390.253000	-0.014529
390.429000	-0.083838
390.604000	0.027498
390.780000	-0.052442
390.956000	-0.134994
391.131000	-0.176136
391.307000	0.117506
391.483000	-0.070778
391.659000	-0.210764
391.834000	0.064688
392.010000	-0.111923
392.186000	-0.228593
392.361000	-0.116050
392.537000	-0.178371
392.713000	0.319304
392.888000	0.412523
393.064000	0.056590
393.240000	-0.092098
393.416000	-0.165347
393.591000	-0.255760
393.767000	-0.316240
393.943000	-0.245987
394.118000	0.095944
394.294000	0.322774
394.470000	0.216089
394.645000	0.211765
394.821000	0.410616
394.997000	0.088012
395.172000	-0.013747
395.348000	-0.155142
395.524000	-0.322089
395.700000	-0.210929
395.875000	0.007900
396.051000	-0.049493
396.227000	-0.143805
396.402000	-0.155465
396.578000	-0.071737
396.754000	-0.186658
396.929000	-0.160712
397.105000	0.140413
397.281000	0.097399
397.457000	-0.081405
397.632000	-0.048752
397.808000	-0.308599
397.984000	-0.469952
398.159000	-0.335046
398.335000	-0.134720
398.511000	0.239061
398.686000	0.068232
398.862000	-0.129894
399.038000	-0.340797
399.213000	-0.065876
399.389000	-0.267548
399.565000	0.007743
399.741000	0.260873
399.916000	0.153350
400.092000	0.424598
400.268000	0.035734
400.443000	-0.091464
400.619000	0.301481
400.795000	0.096602
400.970000	-0.090417
401.146000	-0.101325
401.322000	0.195520
401.497000	0.591791
401.673000	0.281766
401.849000	-0.056025
402.025000	0.134879
402.200000	0.004226
402.376000	-0.090808
402.552000	0.396544
402.727000	0.211767
402.903000	-0.220448
403.079000	-0.090627
403.254000	0.257350
403.430000	0.157849
403.606000	0.011194
403.782000	0.004192
403.957000	-0.149952
404.133000	-0.276793
404.309000	-0.108155
404.484000	0.112668
404.660000	0.109473
404.841000	-0.030896
405.023000	0.164809
405.204000	0.147786
405.385000	-0.104839
405.566000	-0.142892
405.748000	0.036096
405.929000	0.267444
406.110000	0.222170
406.292000	0.091182
406.473000	0.084430
406.654000	-0.115343
406.835000	0.095324
407.017000	0.046085
407.198000	0.087000
407.379000	0.134960
407.560000	0.042134
407.742000	0.038981
407.923000	0.116191
408.104000	-0.072449
408.286000	0.063264
408.467000	0.101249
408.648000	-0.114084
408.829000	-0.068625
409.011000	0.087450
409.192000	-0.159557
409.373000	0.066799
409.555000	0.258194
409.736000	0.211530
409.917000	0.083955
410.098000	0.107523
410.280000	0.247018
410.461000	0.290977
410.642000	0.308623
410.823000	0.493205
411.005000	0.411642
411.186000	0.154897
411.367000	0.120732
411.549000	0.124072
411.730000	0.353609
411.911000	0.544570
412.092000	0.334908
412.274000	0.240996
412.455000	0.305938
412.636000	0.401274
412.818000	0.203559
412.999000	0.151805
413.180000	0.267601
413.361000	0.244857
413.543000	0.253669
413.724000	0.165539
413.905000	0.236204
414.087000	0.233326
414.268000	0.140729
414.449000	0.231200
414.630000	0.258931
414.812000	0.030795
414.993000	0.402201
415.174000	0.641437
415.355000	0.555203
415.537000	0.296660
415.718000	0.526681
415.899000	0.481961
416.081000	0.347753
416.262000	0.627440
416.443000	0.533731
416.624000	0.502950
416.806000	0.665092
416.987000	0.846753
417.168000	0.723413
417.350000	0.509752
417.531000	0.516482
417.712000	0.601317
417.893000	0.862157
418.075000	0.959712
418.256000	0.731000
418.437000	0.783048
418.618000	0.940057
418.800000	0.990689
418.981000	0.904756
419.162000	1.040598
419.344000	1.190020
419.525000	1.101960
419.706000	0.972704
419.887000	1.146544
420.069000	1.385982
420.250000	1.275077
420.431000	1.164955
420.613000	1.124854
420.794000	0.980071
420.975000	1.367351
421.156000	1.198417
421.338000	1.190973
421.519000	1.245707
421.700000	1.187774
421.882000	1.275122
422.063000	1.517855
422.244000	1.928606
422.425000	1.690419
422.607000	1.391429
422.788000	1.482464
422.969000	1.391534
423.150000	1.425456
423.332000	1.482557
423.513000	1.742600
423.694000	1.755002
423.876000	1.791788
424.057000	1.830940
424.238000	1.984138
424.419000	2.100788
424.601000	1.986408
424.782000	1.977886
424.963000	2.148832
425.145000	2.213007
425.326000	2.158353
425.507000	2.180937
425.688000	2.156417
425.870000	2.119513
426.051000	2.105014
426.232000	2.185522
426.413000	2.208116
426.595000	2.264370
426.776000	2.331110
426.957000	2.399517
427.139000	2.515261
427.320000	2.694980
427.501000	2.858466
427.682000	2.821823
427.864000	2.875259
428.045000	3.101171
428.226000	3.076427
428.408000	2.829362
428.589000	2.985884
428.770000	3.066425
428.951000	3.019253
429.133000	2.939437
429.314000	3.214956
429.495000	3.277966
429.677000	3.315297
429.858000	3.415439
430.039000	3.551565
430.220000	3.710105
430.402000	3.836648
430.583000	3.610547
430.764000	3.775787
430.945000	4.046665
431.127000	4.145415
431.308000	4.091459
431.489000	4.328100
431.671000	4.432417
431.852000	4.460109
432.033000	4.502014
432.214000	4.690317
432.396000	4.728674
432.577000	4.611985
432.758000	4.646526
432.940000	4.768888
433.121000	4.976875
433.302000	5.093500
433.483000	5.383883
433.665000	5.551341
433.846000	5.629333
434.027000	5.499759
434.208000	5.508253
434.390000	5.686154
434.571000	6.139434
434.752000	6.673119
434.934000	6.602344
435.115000	6.550191
435.296000	6.897449
435.477000	6.864767
435.659000	6.601742
435.840000	6.838010
436.026000	7.048602
436.211000	7.031651
436.397000	6.879447
436.582000	7.158470
436.768000	7.470850
436.953000	7.561569
437.139000	7.715874
437.325000	8.122222
437.510000	8.218204
437.696000	8.514329
437.881000	8.703422
438.067000	8.509308
438.252000	8.792390
438.438000	8.918424
438.624000	9.075135
438.809000	9.391337
438.995000	9.685357
439.180000	9.816443
439.366000	10.059320
439.551000	10.331358
439.737000	10.562678
439.923000	10.733975
440.108000	10.903850
440.294000	11.337952
440.479000	11.624980
440.665000	11.798426
440.850000	11.989227
441.036000	12.337695
441.222000	12.598071
441.407000	12.858938
441.593000	13.068296
441.778000	13.534484
441.964000	13.950817
442.149000	13.929652
442.335000	14.200552
442.521000	14.583137
442.706000	15.213849
442.892000	15.424832
443.077000	15.764263
443.263000	16.157247
443.448000	16.404038
443.634000	16.755362
443.820000	17.312478
444.005000	17.479813
444.191000	17.678080
444.376000	18.044469
444.562000	18.723674
444.747000	19.061555
444.933000	19.432435
445.119000	19.579738
445.304000	19.868684
445.490000	20.412534
445.675000	20.661061
445.861000	21.081634
446.046000	21.481719
446.232000	21.922863
446.418000	22.225935
446.603000	22.601268
446.789000	23.035342
446.974000	23.396520
447.160000	23.396173
447.345000	23.568004
447.531000	23.833395
447.717000	24.613455
447.902000	25.108894
448.088000	25.315999
448.273000	25.294090
448.459000	25.435982
448.644000	25.676675
448.830000	25.936573
449.016000	25.987151
449.201000	26.224844
449.387000	26.553323
449.572000	26.681597
449.758000	26.550653
449.943000	26.680078
450.129000	26.670352
450.315000	26.647761
450.500000	26.789550
450.686000	26.982400
450.871000	26.875520
451.057000	26.760471
451.243000	26.718550
451.428000	26.663361
451.614000	26.539606
451.799000	26.463202
451.985000	26.539689
452.170000	26.533662
452.356000	26.314022
452.542000	26.020857
452.727000	25.892382
452.913000	25.503775
453.098000	25.556148
453.284000	25.576603
453.469000	25.089998
453.655000	25.076717
453.841000	24.683835
454.026000	24.062903
454.212000	23.702882
454.397000	23.522373
454.583000	23.350981
454.768000	22.887591
454.954000	22.670911
455.140000	22.298867
455.325000	21.806937
455.511000	21.640983
455.696000	21.365706
455.882000	21.225619
456.067000	21.238485
456.253000	20.726887
456.439000	20.213599
456.624000	19.957748
456.810000	19.732911
456.995000	19.556965
457.181000	19.063518
457.366000	19.044241
457.552000	18.733847
457.738000	18.544963
457.923000	18.305165
458.109000	18.379485
458.294000	18.101438
458.480000	17.850427
458.665000	17.623674
458.851000	17.352591
459.037000	16.842410
